timestamps,TP9,AF7,AF8,TP10,Right AUX
1763453831.549,-949.219,-37.598,-16.113,970.215,0.000
1763453831.553,-1000.000,-30.762,-20.508,973.145,0.000
1763453831.557,-122.070,-20.996,-22.461,958.984,0.000
1763453831.561,999.512,-16.113,-30.762,928.223,0.000
1763453831.565,999.512,-19.531,-31.250,999.512,0.000
1763453831.568,62.988,-30.762,-29.297,10.742,0.000
1763453831.572,-1000.000,-45.410,-29.785,-1000.000,0.000
1763453831.576,-969.727,-48.340,-25.879,-964.844,0.000
1763453831.580,-992.188,-38.086,-24.414,-984.863,0.000
1763453831.584,-957.031,-34.180,-22.949,-1000.000,0.000
1763453831.588,-1000.000,-30.273,-21.484,-1000.000,0.000
1763453831.592,-883.789,-23.438,-26.855,-1000.000,0.000
1763453831.596,471.680,-21.484,-29.785,-1000.000,0.000
1763453831.600,999.512,-20.508,-26.367,-1000.000,0.000
1763453831.604,906.738,-24.414,-27.832,-1000.000,0.000
1763453831.608,978.027,-24.414,-26.367,-1000.000,0.000
1763453831.611,969.727,-27.832,-20.508,-1000.000,0.000
1763453831.615,969.727,-25.391,-23.926,-1000.000,0.000
1763453831.619,969.727,-18.066,-23.438,-1000.000,0.000
1763453831.623,969.727,-26.855,-26.855,-1000.000,0.000
1763453831.627,969.727,-32.227,-30.762,-958.496,0.000
1763453831.631,969.727,-33.691,-31.738,-1000.000,0.000
1763453831.635,969.727,-28.320,-33.691,-906.738,0.000
1763453831.639,969.727,-18.555,-31.738,406.738,0.000
1763453831.643,969.238,-9.277,-21.973,999.512,0.000
1763453831.647,969.727,-7.324,-18.555,910.645,0.000
1763453831.651,969.727,-12.695,-20.996,975.098,0.000
1763453831.654,969.727,-11.230,-20.020,970.215,0.000
1763453831.658,969.727,-9.766,-22.461,970.215,0.000
1763453831.662,969.238,-13.672,-26.855,970.215,0.000
1763453831.666,969.238,-19.531,-22.949,970.215,0.000
1763453831.670,969.727,-33.203,-24.414,970.215,0.000
1763453831.674,978.516,-34.180,-30.273,977.051,0.000
1763453831.678,899.902,-31.738,-29.785,940.918,0.000
1763453831.682,999.512,-27.344,-24.414,963.867,0.000
1763453831.686,384.277,-20.020,-23.926,995.117,0.000
1763453831.690,-981.445,-46.875,-29.785,-245.605,0.000
1763453831.694,-1000.000,-63.477,-32.715,-1000.000,0.000
1763453831.698,-894.531,-48.828,-34.180,-887.207,0.000
1763453831.701,-1000.000,-36.621,-31.250,-1000.000,0.000
1763453831.705,-219.727,-14.160,-24.902,-166.016,0.000
1763453831.709,999.512,9.766,-20.996,999.512,0.000
1763453831.713,953.125,-5.371,-17.578,947.266,0.000
1763453831.717,942.383,-23.438,-15.625,946.777,0.000
1763453831.721,976.562,-18.066,-17.578,976.074,0.000
1763453831.725,969.727,-24.902,-24.902,970.215,0.000
1763453831.729,979.004,-29.785,-28.320,970.215,0.000
1763453831.733,923.828,-22.461,-29.297,970.215,0.000
1763453831.737,999.512,-21.484,-28.320,970.215,0.000
1763453831.741,822.266,-24.414,-22.461,970.215,0.000
1763453831.744,-504.395,-33.203,-18.066,970.215,0.000
1763453831.748,-1000.000,-33.691,-14.648,970.703,0.000
1763453831.752,-941.895,-21.973,-8.301,972.656,0.000
1763453831.756,-1000.000,-18.066,-8.301,905.762,0.000
1763453831.760,-1000.000,-12.207,-9.277,999.512,0.000
1763453831.764,-1000.000,-21.484,-11.230,225.586,0.000
1763453831.768,-1000.000,-40.039,-20.020,-1000.000,0.000
1763453831.772,-1000.000,-36.621,-23.926,-990.723,0.000
1763453831.776,-1000.000,-30.273,-18.555,-969.727,0.000
1763453831.779,-1000.000,-22.949,-16.602,-1000.000,0.000
1763453831.784,-1000.000,-18.555,-18.066,-1000.000,0.000
1763453831.788,-988.281,-15.625,-15.137,-1000.000,0.000
1763453831.791,-959.473,-18.066,-16.113,-1000.000,0.000
1763453831.795,-1000.000,-19.043,-18.066,-1000.000,0.000
1763453831.799,-30.273,-10.742,-17.578,-1000.000,0.000
1763453831.803,999.512,-5.371,-19.043,-1000.000,0.000
1763453831.807,933.105,-6.836,-19.531,-1000.000,0.000
1763453831.811,955.078,-22.461,-20.020,-1000.000,0.000
1763453831.815,979.980,-32.227,-25.879,-1000.000,0.000
1763453831.819,901.367,-21.484,-30.762,-1000.000,0.000
1763453831.823,999.512,-20.020,-28.320,-1000.000,0.000
1763453831.826,323.242,-23.438,-28.320,-1000.000,0.000
1763453831.830,0.000,-25.879,-28.320,-1000.000,0.000
1763453831.834,0.000,-26.367,-26.855,-1000.000,0.000
1763453831.838,0.000,-20.508,-24.414,-1000.000,0.000
1763453831.842,0.000,-21.973,-23.926,-1000.000,0.000
1763453831.846,0.000,-28.809,-28.320,-1000.000,0.000
1763453831.850,0.000,-13.184,-20.996,-1000.000,0.000
1763453831.854,0.000,-0.977,-14.160,-1000.000,0.000
1763453831.858,0.000,-9.277,-20.996,-1000.000,0.000
1763453831.862,0.000,-4.883,-21.973,-1000.000,0.000
1763453831.866,0.000,0.977,-19.531,-987.305,0.000
1763453831.869,0.000,-7.324,-25.391,-962.891,0.000
1763453831.873,0.000,-7.812,-31.738,-1000.000,0.000
1763453831.877,-1000.000,4.883,-27.832,-22.461,0.000
1763453831.881,-1000.000,2.441,-20.996,999.512,0.000
1763453831.885,-960.938,-8.301,-16.602,936.035,0.000
1763453831.889,-950.684,-8.301,-11.719,954.590,0.000
1763453831.893,-1000.000,-4.883,-10.254,974.121,0.000
1763453831.897,-189.941,-0.488,-11.719,976.562,0.000
1763453831.900,999.512,-6.836,-17.090,901.367,0.000
1763453831.904,949.219,-16.602,-21.484,999.512,0.000
1763453831.908,944.824,-32.227,-17.090,304.688,0.000
1763453831.912,975.586,-54.199,-20.996,-1000.000,0.000
1763453831.916,969.727,-44.434,-23.438,-1000.000,0.000
1763453831.920,969.727,-34.180,-19.531,-961.426,0.000
1763453831.924,-943.359,-30.762,-19.531,-952.148,0.000
1763453831.928,-1000.000,-32.227,-19.043,-1000.000,0.000
1763453831.932,-219.727,-9.277,-17.578,-171.387,0.000
1763453831.936,999.512,7.324,-21.973,999.512,0.000
1763453831.939,953.125,-5.859,-23.926,947.754,0.000
1763453831.943,942.383,-2.930,-22.949,946.289,0.000
1763453831.947,976.074,-8.789,-23.438,976.074,0.000
1763453831.951,969.727,-14.160,-21.973,970.215,0.000
1763453831.955,979.980,-17.578,-21.973,973.145,0.000
1763453831.959,924.316,-23.438,-22.461,956.543,0.000
1763453831.963,999.512,-17.578,-21.484,931.152,0.000
1763453831.967,863.281,-12.695,-18.555,999.512,0.000
1763453831.971,-475.098,-34.668,-13.184,-33.203,0.000
1763453831.975,-1000.000,-48.828,-15.625,-1000.000,0.000
1763453831.979,-938.477,-32.227,-21.484,-957.031,0.000
1763453831.982,-1000.000,-27.832,-20.996,-988.770,0.000
1763453831.986,-1000.000,-26.367,-18.555,-1000.000,0.000
1763453831.990,-978.027,-10.254,-15.625,-996.582,0.000
1763453831.994,-979.980,-12.695,-18.066,-944.336,0.000
1763453831.998,-1000.000,-34.180,-23.926,-1000.000,0.000
1763453832.002,122.559,-13.184,-22.949,-145.996,0.000
1763453832.006,999.512,5.859,-22.949,999.512,0.000
1763453832.010,919.434,-0.977,-21.973,944.336,0.000
1763453832.014,963.867,-3.906,-20.508,948.242,0.000
1763453832.018,971.191,-10.742,-25.391,975.098,0.000
1763453832.022,969.727,-8.301,-24.902,970.215,0.000
1763453832.026,969.727,-12.207,-21.973,970.215,0.000
1763453832.029,969.727,-22.461,-20.508,970.215,0.000
1763453832.033,976.562,-28.320,-18.066,973.145,0.000
1763453832.037,939.453,-12.695,-16.602,956.055,0.000
1763453832.041,964.844,-11.719,-16.602,931.641,0.000
1763453832.045,989.746,-11.719,-17.578,999.512,0.000
1763453832.049,-262.695,-25.391,-26.367,-38.574,0.000
1763453832.053,-1000.000,-53.711,-30.762,-1000.000,0.000
1763453832.057,-942.383,-47.363,-30.273,-956.543,0.000
1763453832.061,-1000.000,-34.668,-33.203,-989.258,0.000
1763453832.065,-1000.000,-28.809,-17.090,-300.781,0.000
1763453832.069,-975.586,-25.879,-13.184,-1000.000,0.000
1763453832.073,-982.910,-21.484,-15.137,-941.406,0.000
1763453832.077,-1000.000,-19.531,-17.090,-1000.000,0.000
1763453832.081,154.785,-2.441,-11.719,-1000.000,0.000
1763453832.084,999.512,17.090,-11.230,-996.094,0.000
1763453832.088,915.039,3.906,-12.695,-945.312,0.000
1763453832.092,965.820,-17.578,-11.230,-1000.000,0.000
1763453832.096,981.445,-23.926,-19.043,-139.160,0.000
1763453832.100,925.293,-22.949,-19.043,999.512,0.000
1763453832.104,998.047,-20.020,-14.160,943.359,0.000
1763453832.108,899.414,-26.855,-17.090,948.730,0.000
1763453832.112,-449.219,-43.945,0.000,0.000,0.000
1763453832.116,-1000.000,-45.410,0.000,0.000,0.000
1763453832.120,-935.547,-36.621,0.000,0.000,0.000
1763453832.124,-1000.000,-32.715,0.000,0.000,0.000
1763453832.128,-1000.000,-31.738,0.000,0.000,0.000
1763453832.131,-969.727,-22.461,0.000,0.000,0.000
1763453832.135,-999.023,-16.602,0.000,0.000,0.000
1763453832.139,-999.023,-34.180,0.000,0.000,0.000
1763453832.143,239.258,-24.414,0.000,0.000,0.000
1763453832.147,999.512,-2.930,0.000,0.000,0.000
1763453832.151,915.039,-8.789,0.000,0.000,0.000
1763453832.155,968.750,-17.578,0.000,0.000,0.000
1763453832.159,974.609,-20.508,-14.160,979.004,0.000
1763453832.163,950.684,-20.996,-12.695,953.125,0.000
1763453832.167,938.965,-25.391,-15.137,939.941,0.000
1763453832.171,999.512,-22.461,-12.207,999.512,0.000
1763453832.174,-110.840,-45.898,-15.625,-79.590,0.000
1763453832.178,-1000.000,-53.223,-17.090,-1000.000,0.000
1763453832.182,-948.242,-31.250,-17.578,-956.543,0.000
1763453832.186,-994.141,-41.016,-20.996,-990.234,0.000
1763453832.190,-1000.000,-48.340,-22.461,-1000.000,0.000
1763453832.194,-1000.000,-39.062,-15.137,-1000.000,0.000
1763453832.198,-1000.000,-33.203,-14.648,-1000.000,0.000
1763453832.202,-986.816,-36.621,-21.484,-1000.000,0.000
1763453832.206,-963.867,-37.598,-20.020,-936.035,0.000
1763453832.210,-1000.000,-36.621,-20.020,-1000.000,0.000
1763453832.214,-11.719,-14.160,-19.043,-239.258,0.000
1763453832.217,999.512,7.812,-15.625,999.512,0.000
1763453832.221,933.105,-9.766,-18.555,957.031,0.000
1763453832.225,955.078,-15.137,-20.996,940.918,0.000
1763453832.229,973.145,-16.113,-19.531,978.027,0.000
1763453832.233,973.145,-33.691,-19.043,976.562,0.000
1763453832.237,903.320,-38.574,-21.484,895.020,0.000
1763453832.241,999.512,-27.344,-21.973,999.512,0.000
1763453832.245,241.699,-33.691,-20.996,309.570,0.000
1763453832.249,-1000.000,-59.082,-25.391,-1000.000,0.000
1763453832.253,-992.676,-55.176,-24.414,-1000.000,0.000
1763453832.256,-968.750,-43.945,-22.949,-963.379,0.000
1763453832.260,-1000.000,-38.086,-23.926,-1000.000,0.000
1763453832.264,-1000.000,-30.273,-26.367,-1000.000,0.000
1763453832.268,-1000.000,-23.926,-27.832,-1000.000,0.000
1763453832.272,-1000.000,-19.531,-19.043,-1000.000,0.000
1763453832.276,-999.023,-20.996,-16.113,-1000.000,0.000
1763453832.280,-940.918,-30.273,-20.508,-961.914,0.000
1763453832.284,-1000.000,-36.621,-24.414,-1000.000,0.000
1763453832.288,-195.801,-26.855,-25.879,-948.730,0.000
1763453832.292,999.512,-1.465,-23.438,343.262,0.000
1763453832.295,951.172,0.000,-21.973,999.512,0.000
1763453832.300,943.848,-14.160,-20.020,911.621,0.000
1763453832.303,976.074,-18.066,-20.020,974.121,0.000
1763453832.307,970.215,-16.113,-21.484,969.238,0.000
1763453832.311,906.738,-18.555,-25.391,912.598,0.000
1763453832.315,999.512,-15.137,-22.461,999.512,0.000
1763453832.319,188.965,-18.066,-20.508,163.574,0.000
1763453832.323,-1000.000,-43.457,-29.785,-1000.000,0.000
1763453832.327,-983.887,-53.223,-34.668,-983.398,0.000
1763453832.331,-973.145,-37.598,-27.344,-974.121,0.000
1763453832.335,-1000.000,-20.996,-19.531,-1000.000,0.000
1763453832.338,-1000.000,-24.414,-21.973,-1000.000,0.000
1763453832.342,-1000.000,-26.855,-23.438,-1000.000,0.000
1763453832.346,-955.566,-26.367,-24.902,-986.816,0.000
1763453832.350,-1000.000,-13.672,-28.320,-960.449,0.000
1763453832.354,-899.414,-6.836,-25.879,-1000.000,0.000
1763453832.358,436.035,6.836,-24.414,-4.395,0.000
1763453832.362,999.512,20.508,-20.996,999.512,0.000
1763453832.366,907.715,17.578,-17.090,927.734,0.000
1763453832.370,976.562,8.301,-16.602,958.008,0.000
1763453832.374,969.727,-9.277,-15.625,972.656,0.000
1763453832.377,970.215,-14.160,-15.625,970.215,0.000
1763453832.381,967.773,-13.672,-15.625,978.516,0.000
1763453832.385,910.156,-16.602,-16.113,899.902,0.000
1763453832.389,999.512,-8.301,-10.254,999.512,0.000
1763453832.393,152.344,-19.043,-4.883,346.191,0.000
1763453832.397,-1000.000,-43.945,-7.812,-1000.000,0.000
1763453832.401,-979.492,-30.273,-6.836,-1000.000,0.000
1763453832.405,-976.074,-25.391,-6.348,-961.426,0.000
1763453832.409,-1000.000,-23.926,-6.348,-1000.000,0.000
1763453832.413,-941.406,-2.441,-5.859,-945.312,0.000
1763453832.417,-1000.000,-9.766,-10.254,-1000.000,0.000
1763453832.420,-176.758,-8.301,-10.254,-145.508,0.000
1763453832.424,999.512,2.930,-10.254,999.512,0.000
1763453832.428,947.266,-15.137,-16.602,944.824,0.000
1763453832.432,945.312,-17.578,-19.531,948.242,0.000
1763453832.436,975.098,-14.648,-15.137,975.586,0.000
1763453832.440,969.727,-17.090,-14.160,970.215,0.000
1763453832.444,969.727,-17.578,-13.672,970.215,0.000
1763453832.448,969.727,-14.648,-12.695,970.215,0.000
1763453832.452,982.422,-11.719,-14.648,974.121,0.000
1763453832.456,903.809,-14.160,-21.973,953.613,0.000
1763453832.460,999.512,-11.719,-21.973,937.012,0.000
1763453832.463,598.145,-4.395,-18.555,999.512,0.000
1763453832.467,-810.059,-28.320,-20.996,-69.824,0.000
1763453832.471,-1000.000,-49.316,-27.344,-1000.000,0.000
1763453832.475,-944.336,-37.598,-25.879,-955.078,0.000
1763453832.479,-1000.000,-29.785,-20.508,-990.234,0.000
1763453832.483,-1000.000,-23.438,-18.066,-1000.000,0.000
1763453832.487,-989.746,-19.043,-15.625,-991.211,0.000
1763453832.491,-954.590,-12.207,-18.555,-954.102,0.000
1763453832.495,-1000.000,-10.742,-15.625,-1000.000,0.000
1763453832.499,-41.992,-2.930,-13.184,-70.312,0.000
1763453832.503,999.512,14.648,-12.695,999.512,0.000
1763453832.506,929.688,10.254,-11.719,936.523,0.000
1763453832.510,955.566,-5.371,-14.160,953.125,0.000
1763453832.514,972.656,-21.484,-17.090,974.121,0.000
1763453832.518,971.680,-22.949,-20.020,970.703,0.000
1763453832.522,960.449,-20.020,-19.043,968.262,0.000
1763453832.526,922.852,-25.879,-15.137,912.109,0.000
1763453832.530,999.512,-26.855,-16.113,999.512,0.000
1763453832.534,39.551,-42.480,-19.531,143.555,0.000
1763453832.538,-1000.000,-56.641,-19.531,-1000.000,0.000
1763453832.542,-966.797,-48.340,-19.043,-978.027,0.000
1763453832.546,-983.398,-42.969,-21.973,-976.562,0.000
1763453832.549,-1000.000,-33.691,-19.531,-1000.000,0.000
1763453832.553,-929.688,-26.855,-20.508,-940.430,0.000
1763453832.557,-1000.000,-32.715,-26.855,-1000.000,0.000
1763453832.561,-620.605,-33.691,-27.832,-762.695,0.000
1763453832.565,816.406,-12.695,-24.414,645.508,0.000
1763453832.569,999.512,-8.789,-25.879,999.512,0.000
1763453832.573,912.109,-11.230,-27.344,907.715,0.000
1763453832.577,984.375,-8.789,-26.367,982.910,0.000
1763453832.581,969.727,-22.949,-27.344,970.215,0.000
1763453832.585,974.609,-29.297,-27.832,980.957,0.000
1763453832.589,901.855,-23.438,-28.320,898.438,0.000
1763453832.592,999.512,-19.043,-24.414,999.512,0.000
1763453832.596,277.344,-27.832,-26.855,414.062,0.000
1763453832.600,-1000.000,-36.133,-24.414,-973.145,0.000
1763453832.604,-999.023,-26.855,-23.438,-1000.000,0.000
1763453832.608,-965.820,-36.621,-27.344,-954.590,0.000
1763453832.612,-1000.000,-34.668,-23.926,-1000.000,0.000
1763453832.616,-1000.000,-29.297,-26.367,-1000.000,0.000
1763453832.620,-1000.000,-28.809,-36.133,-1000.000,0.000
1763453832.624,-928.711,-24.414,-34.180,-944.336,0.000
1763453832.628,-1000.000,-22.949,-28.320,-1000.000,0.000
1763453832.631,-460.449,-18.555,-31.250,-817.871,0.000
1763453832.635,930.664,0.488,-29.785,583.008,0.000
1763453832.639,997.070,0.000,-25.879,999.512,0.000
1763453832.643,922.852,-8.789,-21.973,905.762,0.000
1763453832.647,982.422,-0.488,-14.160,981.934,0.000
1763453832.651,969.238,-14.160,-13.672,970.215,0.000
1763453832.655,969.727,-34.180,-18.066,970.703,0.000
1763453832.659,968.750,-23.926,-17.578,968.750,0.000
1763453832.663,909.180,-21.484,-19.043,910.645,0.000
1763453832.666,999.512,-21.484,-18.066,999.512,0.000
1763453832.670,160.156,-34.668,-20.508,156.738,0.000
1763453832.674,-1000.000,-49.805,-23.438,-1000.000,0.000
1763453832.678,-979.980,-28.320,-19.043,-979.980,0.000
1763453832.682,-975.098,-24.414,-22.949,-975.586,0.000
1763453832.686,-1000.000,-32.227,-24.902,-1000.000,0.000
1763453832.690,-1000.000,-35.156,-15.137,-1000.000,0.000
1763453832.694,-1000.000,-34.668,-11.719,-1000.000,0.000
1763453832.698,-1000.000,-36.621,-14.648,-1000.000,0.000
1763453832.702,-982.910,-36.621,-12.207,-1000.000,0.000
1763453832.706,-969.238,-32.227,-14.160,-938.965,0.000
1763453832.709,-1000.000,-42.480,-19.043,-1000.000,0.000
1763453832.713,45.898,-22.461,-18.555,-204.590,0.000
1763453832.717,999.512,0.000,-13.184,999.512,0.000
1763453832.721,925.293,-3.906,-11.719,951.660,0.000
1763453832.725,959.473,-7.324,-10.254,943.848,0.000
1763453832.729,972.168,-10.254,-6.348,976.562,0.000
1763453832.733,969.727,-8.301,-11.230,970.215,0.000
1763453832.737,970.215,-17.578,-15.625,972.168,0.000
1763453832.741,906.738,-13.672,-15.137,906.250,0.000
1763453832.745,999.512,-10.254,-15.625,999.512,0.000
1763453832.748,188.965,-40.039,-13.672,213.867,0.000
1763453832.752,-1000.000,-56.641,-11.230,-1000.000,0.000
1763453832.756,-983.887,-44.434,-17.090,-987.793,0.000
1763453832.760,-973.145,-35.645,-16.602,-971.191,0.000
1763453832.764,-1000.000,-35.645,-12.207,-1000.000,0.000
1763453832.768,-999.023,-32.227,-12.695,-1000.000,0.000
1763453832.772,-940.918,-31.738,-17.578,-928.223,0.000
1763453832.776,-1000.000,-34.180,-20.508,-1000.000,0.000
1763453832.780,-186.523,-18.555,-20.508,-500.000,0.000
1763453832.784,999.512,0.977,-22.949,905.762,0.000
1763453832.788,949.219,-5.371,-25.391,999.512,0.000
1763453832.791,944.336,-11.230,-20.020,920.898,0.000
1763453832.795,975.586,-9.277,-11.719,983.887,0.000
1763453832.799,974.609,-15.625,-10.254,974.121,0.000
1763453832.803,947.754,-18.066,-11.230,952.148,0.000
1763453832.807,945.312,-14.160,-10.254,941.895,0.000
1763453832.811,999.512,-15.137,-10.254,999.512,0.000
1763453832.815,-147.461,-34.668,-15.137,-91.309,0.000
1763453832.819,-1000.000,-44.922,-11.719,-1000.000,0.000
1763453832.823,-946.289,-31.250,-9.766,-956.055,0.000
1763453832.827,-995.605,-30.273,-14.648,-990.234,0.000
1763453832.831,-1000.000,-31.738,-20.996,-1000.000,0.000
1763453832.834,-1000.000,-14.160,-22.461,-1000.000,0.000
1763453832.838,-927.734,-4.883,-19.043,-937.012,0.000
1763453832.842,-1000.000,-20.996,-22.949,-1000.000,0.000
1763453832.846,-559.082,-24.902,-21.973,-718.750,0.000
1763453832.850,869.629,-3.418,-21.973,700.684,0.000
1763453832.854,999.512,-0.488,-21.484,999.512,0.000
1763453832.858,916.016,-5.859,-17.578,909.180,0.000
1763453832.862,984.375,-11.230,-19.043,983.398,0.000
1763453832.866,969.727,-21.484,-19.531,970.215,0.000
1763453832.870,969.727,-20.996,-23.926,970.215,0.000
1763453832.874,968.750,-16.602,-24.414,978.027,0.000
1763453832.877,908.203,-20.996,-17.578,899.902,0.000
1763453832.881,999.512,-15.137,-23.926,999.512,0.000
1763453832.885,168.457,-21.973,-23.438,339.844,0.000
1763453832.889,-1000.000,-47.852,-22.461,-1000.000,0.000
1763453832.893,-981.445,-43.945,-28.809,-1000.000,0.000
1763453832.897,-974.609,-32.227,-24.902,-960.938,0.000
1763453832.901,-1000.000,-20.508,-21.973,-1000.000,0.000
1763453832.905,-1000.000,-11.719,-25.879,-1000.000,0.000
1763453832.909,-1000.000,-18.066,-29.785,-1000.000,0.000
1763453832.913,-934.082,-32.715,-33.203,-948.242,0.000
1763453832.917,-1000.000,-33.203,-33.691,-1000.000,0.000
1763453832.920,-684.570,-21.973,-29.297,-852.051,0.000
1763453832.924,745.605,1.465,-23.926,529.297,0.000
1763453832.928,999.512,15.625,-24.902,999.512,0.000
1763453832.932,909.180,3.418,-24.902,906.250,0.000
1763453832.936,983.887,-13.672,-25.391,980.469,0.000
1763453832.940,969.238,-18.555,-32.227,970.215,0.000
1763453832.944,970.703,-19.531,-33.691,971.191,0.000
1763453832.948,964.355,-20.020,-33.203,967.285,0.000
1763453832.952,915.039,-20.508,-29.785,912.598,0.000
1763453832.956,999.512,-17.090,-30.762,999.512,0.000
1763453832.960,96.680,-36.133,-35.156,134.766,0.000
1763453832.963,-1000.000,-53.711,-35.645,-1000.000,0.000
1763453832.967,-971.680,-42.480,-33.203,-977.051,0.000
1763453832.971,-979.980,-41.016,-29.297,-977.051,0.000
1763453832.975,-1000.000,-27.344,-27.832,-1000.000,0.000
1763453832.979,-1000.000,-12.695,-28.320,-1000.000,0.000
1763453832.983,-998.535,-23.926,-25.391,-1000.000,0.000
1763453832.987,-940.918,-31.250,-23.438,-935.547,0.000
1763453832.991,-1000.000,-31.250,-26.855,-1000.000,0.000
1763453832.995,-183.105,-15.625,-25.391,-251.953,0.000
1763453832.998,999.512,9.766,-22.949,999.512,0.000
1763453833.002,948.730,-4.883,-21.484,959.473,0.000
1763453833.006,944.824,-18.555,-24.902,940.430,0.000
1763453833.010,975.586,-18.066,-29.297,978.027,0.000
1763453833.014,969.238,-20.996,-27.344,969.727,0.000
1763453833.018,979.492,-19.043,-24.414,971.680,0.000
1763453833.022,923.340,-9.766,-22.461,962.402,0.000
1763453833.026,999.512,-15.137,-21.484,920.898,0.000
1763453833.030,820.312,-23.438,-18.066,999.512,0.000
1763453833.034,-512.207,-40.039,-20.020,55.176,0.000
1763453833.037,-1000.000,-49.805,-20.020,-1000.000,0.000
1763453833.041,-941.895,-34.668,-19.531,-968.262,0.000
1763453833.045,-1000.000,-36.133,-22.949,-978.027,0.000
1763453833.049,-940.430,-38.574,-23.926,-950.195,0.000
1763453833.053,-1000.000,-33.691,-28.809,-1000.000,0.000
1763453833.057,-185.059,-11.230,-27.832,-138.672,0.000
1763453833.061,999.512,10.254,-28.809,999.512,0.000
1763453833.065,948.242,3.906,-24.414,943.848,0.000
1763453833.069,944.824,9.766,-12.695,948.730,0.000
1763453833.073,977.539,1.465,-13.184,975.586,0.000
1763453833.077,961.914,-15.137,-19.043,972.168,0.000
1763453833.080,921.387,-20.996,-16.602,905.273,0.000
1763453833.084,999.512,-21.973,-19.043,999.512,0.000
1763453833.088,65.430,-38.086,-26.367,219.727,0.000
1763453833.092,-1000.000,-55.176,-25.391,-1000.000,0.000
1763453833.096,-970.703,-47.852,-25.879,-988.770,0.000
1763453833.100,-980.957,-36.133,-25.879,-970.703,0.000
1763453833.104,-1000.000,-32.227,-27.832,-1000.000,0.000
1763453833.108,-981.934,-32.227,-30.762,-978.516,0.000
1763453833.112,-967.773,-28.809,-30.273,-978.027,0.000
1763453833.116,-1000.000,-32.715,-30.273,-1000.000,0.000
1763453833.119,70.801,-21.484,-30.273,111.328,0.000
1763453833.123,999.512,-12.695,-25.391,999.512,0.000
1763453833.127,917.969,-20.508,-22.949,920.898,0.000
1763453833.131,962.891,-25.391,-26.855,963.867,0.000
1763453833.135,972.168,-20.020,-22.949,972.168,0.000
1763453833.139,964.844,-18.066,-20.996,975.586,0.000
1763453833.143,916.504,-19.043,-19.043,902.344,0.000
1763453833.147,999.512,-16.113,-17.090,999.512,0.000
1763453833.151,106.445,-28.320,-20.996,284.668,0.000
1763453833.155,-1000.000,-44.434,-21.484,-1000.000,0.000
1763453833.159,-975.586,-38.086,-20.996,-1000.000,0.000
1763453833.163,-978.516,-30.762,-21.973,-965.332,0.000
1763453833.166,-1000.000,-30.273,-25.391,-1000.000,0.000
1763453833.170,-1000.000,-37.109,-24.902,-1000.000,0.000
1763453833.174,-1000.000,-35.156,-19.531,-1000.000,0.000
1763453833.178,-1000.000,-31.738,-31.738,-1000.000,0.000
1763453833.182,-929.199,-30.273,-36.133,-928.223,0.000
1763453833.186,-1000.000,-33.203,-29.297,-1000.000,0.000
1763453833.190,-395.508,-17.090,-24.902,-543.945,0.000
1763453833.194,969.727,10.742,-21.973,876.953,0.000
1763453833.198,983.887,4.395,-20.996,999.512,0.000
1763453833.202,928.223,-9.277,-18.555,917.480,0.000
1763453833.206,980.957,-9.277,-17.090,984.375,0.000
1763453833.209,969.727,-1.465,-13.672,970.215,0.000
1763453833.213,969.727,-4.395,-12.695,970.215,0.000
1763453833.217,969.238,-16.602,-12.695,975.098,0.000
1763453833.221,907.715,-22.461,-14.648,902.832,0.000
1763453833.225,999.512,-19.531,-15.137,999.512,0.000
1763453833.229,176.758,-22.949,-13.672,267.090,0.000
1763453833.233,-1000.000,-35.156,-16.113,-1000.000,0.000
1763453833.237,-982.422,-37.598,-19.531,-997.070,0.000
1763453833.241,-974.121,-39.062,-22.949,-966.797,0.000
1763453833.245,-1000.000,-35.156,-20.020,-1000.000,0.000
1763453833.249,-994.141,-24.902,-19.531,-999.023,0.000
1763453833.252,-947.754,-20.996,-17.090,-940.430,0.000
1763453833.256,-1000.000,-17.090,-15.137,-1000.000,0.000
1763453833.260,-115.234,1.953,-18.555,-188.965,0.000
1763453833.264,999.512,11.230,-18.555,999.512,0.000
1763453833.268,939.941,-0.488,-21.484,949.707,0.000
1763453833.272,949.707,-10.742,-20.996,945.312,0.000
1763453833.276,974.121,-12.695,-14.648,976.074,0.000
1763453833.280,973.145,-11.230,-13.672,971.680,0.000
1763453833.284,953.613,-11.230,-11.719,965.820,0.000
1763453833.288,935.547,-10.254,-12.695,915.527,0.000
1763453833.292,999.512,-9.277,-13.184,999.512,0.000
1763453833.296,-61.035,-23.438,-10.742,110.352,0.000
1763453833.299,-1000.000,-41.504,-12.207,-1000.000,0.000
1763453833.303,-956.543,-29.297,-7.324,-974.609,0.000
1763453833.307,-989.746,-16.602,-5.859,-978.516,0.000
1763453833.311,-1000.000,-28.809,-8.789,-1000.000,0.000
1763453833.315,-1000.000,-39.062,-6.348,-1000.000,0.000
1763453833.319,-937.500,-30.273,-8.789,-936.035,0.000
1763453833.323,-1000.000,-30.273,-14.648,-1000.000,0.000
1763453833.327,-219.727,-18.555,-14.648,-242.188,0.000
1763453833.331,0.000,3.906,-10.742,999.512,0.000
1763453833.335,0.000,-0.977,-11.230,957.520,0.000
1763453833.338,0.000,-0.977,-13.184,940.918,0.000
1763453833.342,0.000,5.859,-10.742,977.539,0.000
1763453833.346,0.000,-6.836,-10.254,970.703,0.000
1763453833.350,0.000,-10.742,-10.254,967.773,0.000
1763453833.354,0.000,-8.789,-10.742,911.621,0.000
1763453833.358,0.000,-24.414,-8.789,999.512,0.000
1763453833.362,0.000,-41.504,-9.277,143.066,0.000
1763453833.366,0.000,-49.316,-23.926,-1000.000,0.000
1763453833.370,0.000,-39.551,-31.250,-978.027,0.000
1763453833.373,0.000,-38.086,-22.949,-976.562,0.000
1763453833.377,999.512,-39.062,-22.949,-1000.000,0.000
1763453833.381,953.125,-22.949,-30.762,-1000.000,0.000
1763453833.385,942.383,-20.020,-38.574,-1000.000,0.000
1763453833.389,976.074,-27.344,-37.598,-954.590,0.000
1763453833.393,976.562,-15.625,-38.086,-1000.000,0.000
1763453833.397,936.035,11.230,-33.691,-916.504,0.000
1763453833.401,979.004,29.297,-41.016,438.965,0.000
1763453833.405,921.875,7.812,-57.617,999.512,0.000
1763453833.408,-328.125,-1.953,-52.246,905.762,0.000
1763453833.412,-1000.000,9.277,-40.039,978.516,0.000
1763453833.416,-946.289,11.719,-41.504,982.910,0.000
1763453833.420,-1000.000,-1.465,-49.316,897.949,0.000
1763453833.424,999.512,-17.578,-45.898,999.512,0.000
1763453833.428,349.121,-32.715,-41.016,502.441,0.000
1763453833.432,-1000.000,-48.828,-40.527,-913.574,0.000
1763453833.436,-1000.000,-42.969,-38.086,-1000.000,0.000
1763453833.440,-959.961,-37.598,-35.645,-948.730,0.000
1763453833.444,-1000.000,-25.391,-33.203,-1000.000,0.000
1763453833.447,-1000.000,-28.320,-29.785,-1000.000,0.000
1763453833.451,-1000.000,-37.109,-30.273,-1000.000,0.000
1763453833.455,-1000.000,-29.297,-27.832,-1000.000,0.000
1763453833.459,-1000.000,-32.715,-24.902,-1000.000,0.000
1763453833.463,-942.871,-34.180,-27.832,-973.145,0.000
1763453833.467,-1000.000,-33.203,-30.273,-988.281,0.000
1763453833.471,-769.043,-35.645,-29.785,-1000.000,0.000
1763453833.475,624.512,-10.742,-24.902,187.500,0.000
1763453833.479,999.512,-3.418,-22.949,999.512,0.000
1763453833.483,908.203,-25.879,-21.484,913.574,0.000
1763453833.487,980.957,-23.926,-19.531,968.262,0.000
1763453833.490,969.238,-14.160,-21.484,971.191,0.000
1763453833.494,983.887,-17.578,-22.461,981.934,0.000
1763453833.498,906.738,-23.926,-23.926,920.410,0.000
1763453833.502,999.512,-20.020,-22.461,999.512,0.000
1763453833.506,707.520,-20.020,-26.855,846.680,0.000
1763453833.510,-717.285,-37.109,-31.738,-524.902,0.000
1763453833.514,-1000.000,-43.945,-28.320,-1000.000,0.000
1763453833.518,-937.988,-39.551,-26.855,-936.035,0.000
1763453833.522,-1000.000,-38.574,-30.762,-1000.000,0.000
1763453833.526,-1000.000,-30.273,-27.832,-1000.000,0.000
1763453833.530,-1000.000,-27.344,-22.949,-1000.000,0.000
1763453833.533,-990.234,-22.461,-17.578,-1000.000,0.000
1763453833.537,-956.055,-11.230,-15.137,-938.965,0.000
1763453833.541,-1000.000,-27.344,-20.996,-1000.000,0.000
1763453833.545,-62.500,-20.508,-22.949,-203.125,0.000
1763453833.549,999.512,-0.977,-24.902,999.512,0.000
1763453833.553,936.035,-6.348,-21.973,951.660,0.000
1763453833.557,952.637,-8.789,-15.625,944.336,0.000
1763453833.561,973.633,-20.508,-20.020,976.562,0.000
1763453833.565,0.000,-26.367,0.000,970.215,0.000
1763453833.569,0.000,-26.367,0.000,970.215,0.000
1763453833.573,0.000,-26.855,0.000,970.703,0.000
1763453833.576,0.000,-22.949,0.000,969.727,0.000
1763453833.580,0.000,-23.926,0.000,908.691,0.000
1763453833.584,0.000,-17.578,0.000,999.512,0.000
1763453833.588,0.000,-29.297,0.000,175.781,0.000
1763453833.592,0.000,-57.617,0.000,-1000.000,0.000
1763453833.596,0.000,-54.199,0.000,-981.934,0.000
1763453833.600,0.000,-46.875,0.000,-974.121,0.000
1763453833.604,0.000,-49.316,0.000,-1000.000,0.000
1763453833.608,0.000,-42.480,0.000,-1000.000,0.000
1763453833.612,-939.453,-36.133,-19.043,-937.988,0.000
1763453833.616,-1000.000,-38.086,-18.066,-1000.000,0.000
1763453833.619,-199.219,-20.996,-16.113,-211.914,0.000
1763453833.623,999.512,-7.324,-20.996,999.512,0.000
1763453833.627,950.195,-16.602,-24.902,952.637,0.000
1763453833.631,943.848,-12.695,-18.555,943.359,0.000
1763453833.635,976.074,-10.254,-12.695,977.051,0.000
1763453833.639,977.539,-19.531,-18.555,974.609,0.000
1763453833.643,935.059,-30.762,-21.973,950.684,0.000
1763453833.647,975.586,-23.926,-20.020,941.895,0.000
1763453833.651,956.543,-17.090,-22.461,999.512,0.000
1763453833.654,-326.172,-41.016,-18.555,-108.398,0.000
1763453833.659,-1000.000,-50.781,-18.555,-1000.000,0.000
1763453833.662,-939.941,-35.645,-23.926,-951.660,0.000
1763453833.666,-1000.000,-29.785,-17.090,-993.164,0.000
1763453833.670,-989.746,-26.367,-13.184,-1000.000,0.000
1763453833.674,-958.008,-24.902,-23.438,-938.965,0.000
1763453833.678,-1000.000,-18.066,-27.832,-1000.000,0.000
1763453833.682,-49.316,0.488,-25.391,-205.078,0.000
1763453833.686,999.512,5.371,-25.879,999.512,0.000
1763453833.690,935.547,-8.789,-26.855,951.660,0.000
1763453833.694,953.613,-13.672,-26.367,944.824,0.000
1763453833.698,974.121,-7.812,-23.438,975.098,0.000
1763453833.701,907.227,-11.230,-19.531,910.645,0.000
1763453833.705,999.512,-8.789,-20.508,999.512,0.000
1763453833.709,185.059,-24.414,-23.926,154.785,0.000
1763453833.713,-1000.000,-47.852,-27.344,-1000.000,0.000
1763453833.717,-983.398,-35.645,-24.902,-979.492,0.000
1763453833.721,-973.145,-29.297,-17.578,-975.586,0.000
1763453833.725,-1000.000,-22.949,-19.531,-1000.000,0.000
1763453833.729,-1000.000,-21.484,-23.926,-1000.000,0.000
1763453833.733,-1000.000,-33.203,-18.555,-1000.000,0.000
1763453833.737,-1000.000,-37.598,-15.625,-1000.000,0.000
1763453833.740,-936.035,-30.273,-17.090,-990.723,0.000
1763453833.744,-1000.000,-23.438,-16.602,-955.078,0.000
1763453833.748,-281.738,-15.625,-17.090,-1000.000,0.000
1763453833.752,0.000,8.789,-11.719,-70.312,0.000
1763453833.756,0.000,12.695,-6.348,999.512,0.000
1763453833.760,0.000,-0.977,-4.883,937.988,0.000
1763453833.764,0.000,0.488,-5.859,952.637,0.000
1763453833.768,0.000,-12.207,-14.160,974.609,0.000
1763453833.772,0.000,-16.113,-11.230,970.215,0.000
1763453833.776,0.000,-17.090,-11.230,977.051,0.000
1763453833.780,0.000,-32.715,-17.578,900.879,0.000
1763453833.783,0.000,-26.367,-15.625,999.512,0.000
1763453833.787,0.000,-33.203,-17.090,316.406,0.000
1763453833.791,0.000,-47.363,-19.043,-1000.000,0.000
1763453833.795,0.000,-36.621,-20.508,-1000.000,0.000
1763453833.799,-970.703,-26.855,0.000,-962.891,0.000
1763453833.803,-1000.000,-17.090,0.000,-1000.000,0.000
1763453833.807,-1000.000,-13.184,0.000,-1000.000,0.000
1763453833.811,-931.152,-18.555,0.000,-928.711,0.000
1763453833.815,-1000.000,-27.344,0.000,-1000.000,0.000
1763453833.819,-346.191,-7.324,0.000,-559.570,0.000
1763453833.823,991.699,16.113,0.000,865.234,0.000
1763453833.826,975.098,-1.953,0.000,999.512,0.000
1763453833.830,932.129,-12.695,0.000,916.504,0.000
1763453833.834,980.469,-9.277,0.000,985.840,0.000
1763453833.838,967.773,-14.648,0.000,965.820,0.000
1763453833.842,910.645,-15.625,0.000,916.016,0.000
1763453833.846,999.512,-14.160,-20.020,999.512,0.000
1763453833.850,143.555,-33.203,-23.926,109.375,0.000
1763453833.854,-1000.000,-44.922,-25.879,-1000.000,0.000
1763453833.858,-977.539,-30.273,-22.949,-974.609,0.000
1763453833.862,-976.562,-22.949,-21.973,-978.516,0.000
1763453833.866,-1000.000,-12.695,-17.578,-1000.000,0.000
1763453833.869,-963.379,-15.625,-16.113,-989.746,0.000
1763453833.873,-1000.000,-24.902,-17.578,-955.566,0.000
1763453833.877,-970.703,-23.926,-16.113,-1000.000,0.000
1763453833.881,324.707,-11.230,-16.602,-45.410,0.000
1763453833.885,999.512,-6.836,-17.090,999.512,0.000
1763453833.889,909.180,-19.531,-17.090,932.617,0.000
1763453833.893,973.145,-20.508,-16.113,955.078,0.000
1763453833.897,969.727,-15.137,-11.719,973.633,0.000
1763453833.901,969.727,-15.137,-16.602,970.215,0.000
1763453833.905,971.191,-22.949,-20.996,970.215,0.000
1763453833.909,965.820,-18.555,-16.113,980.469,0.000
1763453833.913,916.016,-7.812,-18.066,897.949,0.000
1763453833.916,999.512,-10.742,-18.555,999.512,0.000
1763453833.920,130.859,-29.297,-13.184,411.621,0.000
1763453833.924,-1000.000,-46.387,-12.207,-974.609,0.000
1763453833.928,-980.957,-36.621,-16.602,-1000.000,0.000
1763453833.932,-976.074,-26.367,-15.625,-955.078,0.000
1763453833.936,-1000.000,-26.367,-16.602,-1000.000,0.000
1763453833.940,-1000.000,-27.832,-14.648,-1000.000,0.000
1763453833.944,-998.535,-27.832,-12.207,-1000.000,0.000
1763453833.948,-940.918,-27.344,-12.207,-938.965,0.000
1763453833.952,-1000.000,-23.926,-10.254,-1000.000,0.000
1763453833.956,-182.617,2.930,-10.254,-202.148,0.000
1763453833.960,999.512,27.832,-12.207,999.512,0.000
1763453833.963,948.242,9.766,-12.695,951.660,0.000
1763453833.967,944.824,-14.648,-7.324,944.336,0.000
1763453833.971,975.586,-24.414,-4.883,976.562,0.000
1763453833.975,973.145,-33.203,-8.301,970.215,0.000
1763453833.979,955.078,-32.227,-4.883,970.215,0.000
1763453833.983,934.570,-28.320,-2.930,908.203,0.000
1763453833.987,0.000,-21.484,0.000,999.512,0.000
1763453833.991,0.000,-25.879,0.000,177.246,0.000
1763453833.995,0.000,-48.340,0.000,-1000.000,0.000
1763453833.999,0.000,-47.852,0.000,-982.422,0.000
1763453834.003,0.000,-35.156,0.000,-974.121,0.000
1763453834.007,0.000,-23.926,0.000,-1000.000,0.000
1763453834.011,0.000,-16.113,0.000,-1000.000,0.000
1763453834.015,0.000,-25.391,0.000,-1000.000,0.000
1763453834.018,0.000,-32.715,0.000,-1000.000,0.000
1763453834.022,0.000,-32.715,0.000,-1000.000,0.000
1763453834.026,0.000,-35.156,0.000,-941.406,0.000
1763453834.030,0.000,-38.086,0.000,-1000.000,0.000
1763453834.034,0.000,-27.832,0.000,0.000,0.000
1763453834.038,0.000,-4.395,0.000,0.000,0.000
1763453834.042,0.000,-7.324,0.000,0.000,0.000
1763453834.046,0.000,-9.766,0.000,0.000,0.000
1763453834.050,0.000,-3.906,0.000,0.000,0.000
1763453834.054,0.000,0.000,0.000,0.000,0.000
1763453834.058,0.000,2.441,0.000,0.000,0.000
1763453834.062,0.000,-8.301,0.000,0.000,0.000
1763453834.066,0.000,-17.578,0.000,0.000,0.000
1763453834.069,0.000,-40.039,0.000,0.000,0.000
1763453834.073,0.000,-43.457,0.000,0.000,0.000
1763453834.077,0.000,-27.832,0.000,0.000,0.000
1763453834.081,-373.047,-25.879,-32.715,-1000.000,0.000
1763453834.085,976.074,-28.809,-31.250,-1000.000,0.000
1763453834.089,980.469,-20.508,-24.414,-1000.000,0.000
1763453834.093,929.688,-20.996,-20.508,-938.477,0.000
1763453834.097,980.469,-27.344,-17.578,-1000.000,0.000
1763453834.101,983.887,-17.090,-16.113,-745.117,0.000
1763453834.105,898.438,-1.953,-17.578,672.363,0.000
1763453834.109,999.512,-2.441,-19.531,999.512,0.000
1763453834.112,572.754,-10.254,-18.555,908.203,0.000
1763453834.116,-862.793,-12.695,-21.484,984.375,0.000
1763453834.120,-1000.000,-15.625,-22.461,966.309,0.000
1763453834.124,-943.848,-13.672,-19.531,914.551,0.000
1763453834.128,923.340,-7.812,-18.066,912.598,0.000
1763453834.132,982.910,-28.320,-16.113,984.375,0.000
1763453834.136,969.727,-49.316,-16.113,970.215,0.000
1763453834.140,972.168,-41.016,-20.020,977.051,0.000
1763453834.144,904.785,-32.715,-25.391,900.879,0.000
1763453834.148,999.512,-20.020,-22.949,999.512,0.000
1763453834.152,219.727,-18.066,-21.973,320.312,0.000
1763453834.156,-1000.000,-22.461,-24.902,-1000.000,0.000
1763453834.160,-988.770,-26.855,-24.414,-1000.000,0.000
1763453834.163,-970.703,-21.973,-30.273,-962.402,0.000
1763453834.167,-1000.000,8.301,-35.645,-1000.000,0.000
1763453834.171,-1000.000,4.883,-37.598,-1000.000,0.000
1763453834.175,0.000,-13.672,0.000,0.000,0.000
1763453834.179,0.000,-17.578,0.000,0.000,0.000
1763453834.183,0.000,-14.160,0.000,0.000,0.000
1763453834.187,0.000,-10.742,0.000,0.000,0.000
1763453834.191,0.000,-14.648,0.000,0.000,0.000
1763453834.195,0.000,-1.465,0.000,0.000,0.000
1763453834.199,0.000,-12.695,0.000,0.000,0.000
1763453834.203,0.000,-51.758,0.000,0.000,0.000
1763453834.206,0.000,-41.504,0.000,0.000,0.000
1763453834.210,0.000,-33.691,0.000,0.000,0.000
1763453834.214,0.000,-38.574,0.000,0.000,0.000
1763453834.218,0.000,-18.066,0.000,0.000,0.000
1763453834.222,0.000,0.000,0.000,-1000.000,0.000
1763453834.226,0.000,-6.348,0.000,-1000.000,0.000
1763453834.230,0.000,-13.184,0.000,-928.711,0.000
1763453834.234,0.000,-14.160,0.000,-1000.000,0.000
1763453834.238,0.000,-6.348,0.000,-564.941,0.000
1763453834.242,0.000,34.180,0.000,858.887,0.000
1763453834.246,0.000,34.668,0.000,999.512,0.000
1763453834.249,0.000,14.160,0.000,916.504,0.000
1763453834.253,0.000,19.531,0.000,984.375,0.000
1763453834.257,0.000,15.137,0.000,970.215,0.000
1763453834.261,0.000,9.277,0.000,970.215,0.000
1763453834.265,0.000,8.301,0.000,970.215,0.000
1763453834.269,-1000.000,5.371,0.488,-565.918,0.000
1763453834.273,-1000.000,-6.836,-10.254,848.633,0.000
1763453834.277,-934.082,-0.488,-9.277,999.512,0.000
1763453834.281,-1000.000,10.742,-7.812,916.992,0.000
1763453834.285,-280.762,4.883,-12.207,983.887,0.000
1763453834.288,999.512,14.160,-12.695,970.703,0.000
1763453834.292,963.867,-9.277,-10.742,968.750,0.000
1763453834.296,937.500,-42.969,-12.207,911.133,0.000
1763453834.300,978.027,-33.203,-8.789,999.512,0.000
1763453834.304,969.727,-21.973,-6.348,152.832,0.000
1763453834.308,969.727,-21.973,-9.277,-1000.000,0.000
1763453834.312,969.727,-24.414,-13.184,-979.492,0.000
1763453834.316,0.000,-19.531,0.000,0.000,0.000
1763453834.320,0.000,-5.371,0.000,0.000,0.000
1763453834.324,0.000,-0.977,0.000,0.000,0.000
1763453834.328,0.000,-7.324,0.000,0.000,0.000
1763453834.332,0.000,-9.277,0.000,0.000,0.000
1763453834.336,0.000,-10.742,0.000,0.000,0.000
1763453834.339,0.000,-18.555,0.000,0.000,0.000
1763453834.343,0.000,-30.762,0.000,0.000,0.000
1763453834.347,0.000,-42.480,0.000,0.000,0.000
1763453834.351,0.000,-58.105,0.000,0.000,0.000
1763453834.355,0.000,-67.871,0.000,0.000,0.000
1763453834.359,0.000,-59.570,0.000,0.000,0.000
1763453834.363,-1000.000,-53.223,-16.602,-987.305,0.000
1763453834.367,-928.711,-49.805,-14.648,-936.523,0.000
1763453834.371,-1000.000,-53.711,-19.531,-1000.000,0.000
1763453834.375,-615.723,-44.922,-21.484,-528.809,0.000
1763453834.379,826.660,-19.043,-17.578,872.559,0.000
1763453834.382,999.512,-8.789,-11.230,999.512,0.000
1763453834.386,911.621,-22.949,-3.418,919.434,0.000
1763453834.390,984.863,-33.691,-5.371,983.398,0.000
1763453834.394,969.238,-28.320,-9.766,970.215,0.000
1763453834.398,980.957,-30.273,-10.254,970.215,0.000
1763453834.402,917.480,-30.762,-10.254,979.492,0.000
1763453834.406,999.512,-32.715,-14.648,899.902,0.000
1763453834.410,798.340,-34.668,-8.301,999.512,0.000
1763453834.414,-570.312,-55.664,2.930,391.113,0.000
1763453834.418,-1000.000,-65.918,-2.930,-975.098,0.000
1763453834.422,-875.977,-52.246,-12.207,-963.379,0.000
1763453834.426,-1000.000,-46.387,-10.742,-1000.000,0.000
1763453834.430,-219.727,-18.066,-11.719,-176.758,0.000
1763453834.433,999.512,-0.488,-16.602,999.512,0.000
1763453834.437,953.125,-23.926,-17.578,946.777,0.000
1763453834.441,942.383,-31.250,-14.160,946.777,0.000
1763453834.445,976.562,-24.902,-8.301,976.074,0.000
1763453834.449,969.727,-14.648,-14.648,970.215,0.000
1763453834.453,969.727,-12.695,-16.113,970.215,0.000
1763453834.457,864.746,-21.484,-14.648,607.910,0.000
1763453834.461,999.512,-23.438,-18.066,999.512,0.000
1763453834.465,918.945,-31.738,-15.625,906.738,0.000
1763453834.469,983.887,-30.273,-15.625,982.910,0.000
1763453834.473,969.238,-30.762,-14.160,970.215,0.000
1763453834.477,969.238,-44.922,-8.789,970.215,0.000
1763453834.481,969.727,-42.480,-7.324,970.215,0.000
1763453834.484,969.727,-45.410,-9.277,970.215,0.000
1763453834.488,969.727,-41.992,-16.602,974.609,0.000
1763453834.492,907.227,-31.738,-13.184,902.832,0.000
1763453834.496,999.512,-27.344,-7.812,999.512,0.000
1763453834.500,181.152,-17.578,-11.230,269.531,0.000
1763453834.504,0.000,4.395,0.000,0.000,0.000
1763453834.508,0.000,4.395,0.000,0.000,0.000
1763453834.512,0.000,-8.789,0.000,0.000,0.000
1763453834.516,0.000,-16.602,0.000,0.000,0.000
1763453834.520,0.000,-20.508,0.000,0.000,0.000
1763453834.524,0.000,-8.301,0.000,0.000,0.000
1763453834.527,0.000,-6.348,0.000,0.000,0.000
1763453834.531,0.000,-24.902,0.000,0.000,0.000
1763453834.535,0.000,-17.090,0.000,0.000,0.000
1763453834.539,0.000,-5.371,0.000,0.000,0.000
1763453834.543,0.000,-7.812,0.000,0.000,0.000
1763453834.547,0.000,-28.809,0.000,0.000,0.000
1763453834.551,-1000.000,-52.246,-9.766,-1000.000,0.000
1763453834.555,-982.910,-50.781,-9.277,-997.559,0.000
1763453834.559,-973.633,-38.574,-13.672,-966.309,0.000
1763453834.563,-1000.000,-27.832,-15.137,-1000.000,0.000
1763453834.567,-1000.000,-30.762,-15.137,-1000.000,0.000
1763453834.570,-1000.000,-25.391,-20.020,-1000.000,0.000
1763453834.574,-937.988,-26.855,-26.367,-929.688,0.000
1763453834.578,-1000.000,-36.133,-24.902,-1000.000,0.000
1763453834.582,-213.379,-12.207,-22.461,-375.977,0.000
1763453834.586,999.512,16.113,-16.602,978.516,0.000
1763453834.590,952.637,10.254,-12.695,980.957,0.000
1763453834.594,942.871,0.977,-11.230,930.176,0.000
1763453834.598,976.074,-7.324,-7.812,981.445,0.000
1763453834.602,972.168,-10.254,-11.230,974.121,0.000
1763453834.606,904.785,-13.672,-8.789,903.320,0.000
1763453834.610,999.512,-16.113,-6.836,999.512,0.000
1763453834.613,221.191,-30.273,-10.254,259.277,0.000
1763453834.617,-1000.000,-49.805,-8.301,-1000.000,0.000
1763453834.621,-989.258,-29.297,-5.859,-995.605,0.000
1763453834.625,-970.215,-22.949,-12.695,-967.285,0.000
1763453834.629,-1000.000,-26.367,-19.043,-1000.000,0.000
1763453834.633,-1000.000,-24.902,-20.996,-1000.000,0.000
1763453834.637,-936.035,-26.855,-11.719,-978.516,0.000
1763453834.641,-1000.000,-22.949,-8.301,-977.051,0.000
1763453834.645,-589.355,-22.461,-13.184,-1000.000,0.000
1763453834.649,796.387,3.906,-14.160,114.746,0.000
1763453834.653,999.512,20.508,-12.207,999.512,0.000
1763453834.657,916.992,4.395,-11.230,918.457,0.000
1763453834.660,981.934,0.488,-12.207,964.844,0.000
1763453834.664,969.238,4.883,-13.672,971.680,0.000
1763453834.668,969.727,0.488,-15.625,970.215,0.000
1763453834.672,981.445,-12.695,-14.160,983.887,0.000
1763453834.676,896.973,-14.648,-10.742,903.809,0.000
1763453834.680,999.512,-4.883,-9.766,999.512,0.000
1763453834.684,447.754,-20.020,-11.719,714.844,0.000
1763453834.688,-955.078,-45.898,-11.719,-702.148,0.000
1763453834.692,0.000,-36.621,-17.090,0.000,0.000
1763453834.696,0.000,-21.484,-18.555,0.000,0.000
1763453834.700,0.000,-17.090,-11.719,0.000,0.000
1763453834.703,0.000,-16.602,-13.184,0.000,0.000
1763453834.707,0.000,-17.578,-14.648,0.000,0.000
1763453834.711,0.000,-17.090,-8.789,0.000,0.000
1763453834.715,0.000,-11.230,-10.742,0.000,0.000
1763453834.719,0.000,2.441,-13.184,0.000,0.000
1763453834.723,0.000,0.488,-18.555,0.000,0.000
1763453834.727,0.000,-12.207,-20.996,0.000,0.000
1763453834.731,0.000,-16.113,-14.648,0.000,0.000
1763453834.735,0.000,-16.113,-10.742,0.000,0.000
1763453834.739,972.168,-15.137,-13.184,970.215,0.000
1763453834.743,958.008,-20.508,-14.648,970.703,0.000
1763453834.746,931.152,-25.391,-12.695,968.750,0.000
1763453834.750,999.512,-19.531,-14.648,975.098,0.000
1763453834.754,5.371,-24.414,-13.184,951.172,0.000
1763453834.758,-1000.000,-24.902,-9.766,945.312,0.000
1763453834.762,-967.773,-18.555,-5.859,973.633,0.000
1763453834.766,-986.816,-25.391,-6.836,969.727,0.000
1763453834.770,-991.699,-26.855,-11.230,969.727,0.000
1763453834.774,-961.426,-24.414,-13.672,970.215,0.000
1763453834.778,-1000.000,-20.996,-11.230,970.215,0.000
1763453834.782,-15.625,-12.695,-9.766,970.215,0.000
1763453834.786,999.512,-13.184,-14.160,970.215,0.000
1763453834.789,931.641,-19.043,-18.555,970.215,0.000
1763453834.793,955.566,-12.695,-20.508,970.215,0.000
1763453834.797,983.887,-19.531,-20.020,970.703,0.000
1763453834.801,919.922,-27.832,-18.066,968.750,0.000
1763453834.805,999.512,-24.414,-14.160,910.156,0.000
1763453834.809,810.547,-20.020,-15.137,999.512,0.000
1763453834.813,-545.898,-35.645,-19.043,157.715,0.000
1763453834.817,-1000.000,-55.664,-16.113,-1000.000,0.000
1763453834.821,-939.941,-51.270,-18.066,-976.562,0.000
1763453834.824,-946.289,-36.621,-22.949,-918.457,0.000
1763453834.828,-1000.000,-29.785,-24.902,-1000.000,0.000
1763453834.832,-219.727,-11.230,-22.949,-162.598,0.000
1763453834.836,999.512,1.953,-18.066,999.512,0.000
1763453834.840,953.125,-9.766,-18.555,947.266,0.000
1763453834.844,942.383,-7.812,-19.531,946.777,0.000
1763453834.848,976.562,-13.672,-20.996,975.586,0.000
1763453834.852,969.727,-14.648,-20.508,970.215,0.000
1763453834.856,969.727,-6.348,-23.438,970.215,0.000
1763453834.860,969.727,-24.902,-22.461,970.215,0.000
1763453834.864,980.469,-37.109,-27.344,972.656,0.000
1763453834.867,906.738,-30.273,-29.785,960.938,0.000
1763453834.871,999.512,-26.367,-16.113,924.316,0.000
1763453834.875,589.355,-23.926,-15.625,999.512,0.000
1763453834.879,-794.434,-36.133,-17.090,35.156,0.000
1763453834.883,-1000.000,-45.898,-13.184,-1000.000,0.000
1763453834.887,-946.777,-38.086,-12.695,-966.309,0.000
1763453834.891,-1000.000,-32.227,-14.648,-987.793,0.000
1763453834.895,-937.012,-36.621,-15.137,-937.500,0.000
1763453834.899,-1000.000,-29.297,-9.766,-1000.000,0.000
1763453834.903,-227.539,-8.301,-6.348,-291.504,0.000
1763453834.906,999.512,-0.488,-8.301,999.512,0.000
1763453834.910,954.590,-4.395,-8.301,965.820,0.000
1763453834.914,941.406,-13.184,-11.230,937.012,0.000
1763453834.918,976.562,-26.367,-9.766,979.004,0.000
1763453834.922,972.168,-20.996,-5.371,970.215,0.000
1763453834.926,959.473,-19.043,-5.371,974.609,0.000
1763453834.930,928.223,-29.785,-8.789,903.320,0.000
1763453834.934,999.512,-27.344,-11.230,999.512,0.000
1763453834.938,29.297,-35.645,-2.930,256.348,0.000
1763453834.942,-1000.000,-49.805,-2.930,-1000.000,0.000
1763453834.946,-970.215,-43.945,-8.789,-995.117,0.000
1763453834.949,-982.422,-39.551,-12.207,-967.773,0.000
1763453834.953,-1000.000,-38.086,-11.719,-1000.000,0.000
1763453834.957,-934.570,-31.738,-6.348,-937.500,0.000
1763453834.961,-1000.000,-35.645,-13.672,-1000.000,0.000
1763453834.965,-709.473,-32.227,-16.602,-676.758,0.000
1763453834.969,726.074,-8.301,-6.348,726.074,0.000
1763453834.973,0.000,-4.883,-8.789,999.512,0.000
1763453834.977,0.000,-15.625,-12.695,912.109,0.000
1763453834.981,0.000,-16.113,-10.742,983.398,0.000
1763453834.985,0.000,-20.508,-9.766,969.238,0.000
1763453834.988,0.000,-27.344,-5.859,910.156,0.000
1763453834.992,0.000,-17.578,-10.254,999.512,0.000
1763453834.996,0.000,-33.203,-10.742,162.598,0.000
1763453835.000,0.000,-61.035,-9.766,-1000.000,0.000
1763453835.004,0.000,-48.828,-14.648,-980.957,0.000
1763453835.008,0.000,-42.969,-13.184,-974.609,0.000
1763453835.012,0.000,-41.016,-15.137,-1000.000,0.000
1763453835.016,0.000,-35.645,-21.484,-1000.000,0.000
1763453835.020,-1000.000,-36.621,-22.949,-1000.000,0.000
1763453835.024,-1000.000,-36.621,-17.578,-1000.000,0.000
1763453835.028,-939.941,-39.551,-22.949,-986.328,0.000
1763453835.031,-1000.000,-39.551,-27.344,-961.914,0.000
1763453835.035,-698.242,-39.062,-22.461,-1000.000,0.000
1763453835.039,693.359,-11.230,-21.484,6.348,0.000
1763453835.043,999.512,8.789,-16.113,999.512,0.000
1763453835.047,911.621,-9.277,-16.113,927.246,0.000
1763453835.051,981.445,-10.254,-20.020,959.473,0.000
1763453835.055,969.727,-11.719,-21.484,969.727,0.000
1763453835.059,907.227,-17.578,-17.578,914.062,0.000
1763453835.063,999.512,-6.836,-15.625,999.512,0.000
1763453835.067,0.000,-20.020,-16.602,128.418,0.000
1763453835.071,0.000,-48.828,-16.113,-1000.000,0.000
1763453835.074,0.000,-42.480,-21.973,-977.051,0.000
1763453835.078,0.000,-26.367,-23.926,-977.051,0.000
1763453835.082,0.000,-20.508,-23.438,-1000.000,0.000
1763453835.086,0.000,-16.113,-22.461,-1000.000,0.000
1763453835.090,0.000,-21.973,-27.832,-1000.000,0.000
1763453835.094,0.000,-33.691,-29.297,-964.355,0.000
1763453835.098,0.000,-31.250,-27.344,-1000.000,0.000
1763453835.102,0.000,-24.902,-26.367,-970.703,0.000
1763453835.106,0.000,-6.836,-16.113,307.129,0.000
1763453835.110,0.000,0.488,-10.254,999.512,0.000
1763453835.114,937.012,-7.812,-11.230,912.598,0.000
1763453835.117,987.793,-11.719,-12.695,981.934,0.000
1763453835.121,897.949,-13.672,-11.719,899.414,0.000
1763453835.125,999.512,-16.113,-13.672,999.512,0.000
1763453835.129,376.465,-24.902,-9.766,395.996,0.000
1763453835.133,-996.094,-38.086,-10.254,-981.934,0.000
1763453835.137,-1000.000,-31.738,-12.207,-1000.000,0.000
1763453835.141,-958.008,-25.391,-13.184,-956.055,0.000
1763453835.145,-1000.000,-28.809,-17.090,-1000.000,0.000
1763453835.149,-1000.000,-20.996,-14.160,-1000.000,0.000
1763453835.153,-1000.000,-15.137,-12.207,-1000.000,0.000
1763453835.156,-984.375,-18.066,-9.766,-1000.000,0.000
1763453835.160,0.000,-15.137,-7.812,-937.988,0.000
1763453835.164,0.000,-15.137,-6.836,-1000.000,0.000
1763453835.168,0.000,2.930,-5.371,-215.820,0.000
1763453835.172,0.000,18.555,-5.371,999.512,0.000
1763453835.176,0.000,3.906,-8.301,953.613,0.000
1763453835.180,0.000,5.371,-12.695,943.359,0.000
1763453835.184,0.000,-0.488,-12.207,989.258,0.000
1763453835.188,0.000,-26.367,-10.742,916.504,0.000
1763453835.192,0.000,-29.785,-18.066,999.512,0.000
1763453835.196,0.000,-20.508,-22.949,797.852,0.000
1763453835.199,0.000,-38.574,-22.949,-586.914,0.000
1763453835.203,0.000,-45.410,-18.066,-1000.000,0.000
1763453835.207,-937.988,-35.156,-16.602,-937.012,0.000
1763453835.211,-1000.000,-27.344,-17.578,-1000.000,0.000
1763453835.215,-1000.000,-20.508,-14.160,-1000.000,0.000
1763453835.219,-937.500,-22.461,-22.461,-937.988,0.000
1763453835.223,-1000.000,-27.832,-28.320,-1000.000,0.000
1763453835.227,-219.727,-3.418,-24.902,-211.426,0.000
1763453835.231,999.512,15.137,-23.926,999.512,0.000
1763453835.235,953.125,-6.836,-24.414,952.637,0.000
1763453835.238,942.871,-17.578,-22.949,943.359,0.000
1763453835.242,975.586,-16.602,-20.508,988.281,0.000
1763453835.246,909.180,-20.996,-21.484,899.414,0.000
1763453835.250,999.512,-13.672,-25.879,999.512,0.000
1763453835.254,0.000,-21.973,-24.902,455.078,0.000
1763453835.258,0.000,-54.199,-18.066,-940.430,0.000
1763453835.262,0.000,-45.898,-15.625,-1000.000,0.000
1763453835.266,0.000,-32.715,-17.578,-921.387,0.000
1763453835.270,0.000,-27.832,-16.113,-1000.000,0.000
1763453835.274,0.000,-15.137,-12.695,-1000.000,0.000
1763453835.278,0.000,3.906,-14.160,237.793,0.000
1763453835.282,0.000,-0.488,-18.555,999.512,0.000
1763453835.285,0.000,-10.254,-16.113,914.551,0.000
1763453835.289,0.000,-15.137,-18.555,969.238,0.000
1763453835.293,0.000,-20.508,-17.578,971.191,0.000
1763453835.297,0.000,-9.277,-16.113,970.215,0.000
1763453835.301,969.727,-12.207,0.000,970.215,0.000
1763453835.305,969.727,-11.230,0.000,970.215,0.000
1763453835.309,969.727,0.977,0.000,970.215,0.000
1763453835.313,969.727,-7.324,0.000,970.215,0.000
1763453835.317,980.469,-11.719,0.000,979.492,0.000
1763453835.321,896.484,-5.859,0.000,899.414,0.000
1763453835.325,999.512,-3.906,0.000,999.512,0.000
1763453835.328,409.668,-16.602,0.000,387.207,0.000
1763453835.332,-980.957,-39.062,0.000,-984.375,0.000
1763453835.336,-1000.000,-41.504,0.000,-1000.000,0.000
1763453835.340,-943.359,-29.297,0.000,-968.750,0.000
1763453835.344,-972.168,-23.438,0.000,-950.195,0.000
1763453835.348,-1000.000,-22.461,-11.230,-1000.000,0.000
1763453835.352,-37.598,-13.184,-13.184,-663.574,0.000
1763453835.356,999.512,8.301,-21.973,729.980,0.000
1763453835.360,934.570,12.695,-23.438,999.512,0.000
1763453835.364,954.102,4.395,-18.555,913.574,0.000
1763453835.367,973.633,6.836,-22.949,982.422,0.000
1763453835.371,969.727,11.719,-25.879,970.215,0.000
1763453835.375,969.727,-4.395,-16.602,970.215,0.000
1763453835.379,969.727,-16.113,-18.066,970.215,0.000
1763453835.383,977.539,-16.113,-23.926,970.215,0.000
1763453835.387,900.391,-16.113,-14.648,970.215,0.000
1763453835.391,999.512,-13.184,-9.766,970.215,0.000
1763453835.395,347.168,-9.766,0.000,970.215,0.000
1763453835.399,-1000.000,-18.555,0.000,970.215,0.000
1763453835.403,-1000.000,-18.066,0.000,970.215,0.000
1763453835.407,-960.449,-15.625,0.000,970.215,0.000
1763453835.411,-1000.000,-20.996,0.000,970.215,0.000
1763453835.414,-1000.000,-8.789,0.000,970.215,0.000
1763453835.418,-1000.000,-8.301,0.000,970.215,0.000
1763453835.422,-1000.000,-19.531,0.000,970.215,0.000
1763453835.426,-1000.000,-20.508,0.000,970.215,0.000
1763453835.430,-1000.000,-20.996,0.000,970.215,0.000
1763453835.434,-1000.000,-19.531,0.000,970.215,0.000
1763453835.438,-1000.000,-19.043,0.000,970.215,0.000
1763453835.442,-1000.000,-19.043,-20.508,970.215,0.000
1763453835.446,-1000.000,-24.414,-15.625,970.215,0.000
1763453835.450,-1000.000,-22.461,-11.719,970.215,0.000
1763453835.454,-1000.000,-19.043,-8.789,970.215,0.000
1763453835.458,-1000.000,-26.367,-3.906,970.215,0.000
1763453835.462,-1000.000,-12.695,-10.254,970.215,0.000
1763453835.465,-1000.000,-6.836,-16.113,970.215,0.000
1763453835.469,-1000.000,-20.508,-15.625,970.215,0.000
1763453835.473,-1000.000,-20.020,-18.066,970.215,0.000
1763453835.477,-1000.000,-19.043,-14.648,970.215,0.000
1763453835.481,-1000.000,-9.766,-6.348,978.516,0.000
1763453835.485,-1000.000,-19.043,-7.324,932.617,0.000
1763453835.489,-1000.000,-28.809,-9.766,985.840,0.000
1763453835.493,-1000.000,-17.578,-8.301,917.480,0.000
1763453835.497,-1000.000,-28.809,-9.277,-366.211,0.000
1763453835.501,-1000.000,-35.156,-12.207,-1000.000,0.000
1763453835.505,-1000.000,-18.555,-10.742,-942.871,0.000
1763453835.508,-1000.000,-1.953,-9.766,-1000.000,0.000
1763453835.512,-1000.000,-8.789,-8.301,-1000.000,0.000
1763453835.516,-1000.000,-25.391,-6.348,-1000.000,0.000
1763453835.520,-975.098,-25.879,-12.695,-982.910,0.000
1763453835.524,-981.445,-26.855,-14.160,-968.262,0.000
1763453835.528,-1000.000,-25.879,-7.324,-1000.000,0.000
1763453835.532,159.180,-0.488,-4.395,56.152,0.000
1763453835.536,999.512,15.137,-13.184,999.512,0.000
1763453835.540,911.621,-4.395,-19.043,922.363,0.000
1763453835.544,967.773,-16.602,-10.254,961.426,0.000
1763453835.548,980.957,-17.578,-14.648,982.422,0.000
1763453835.551,896.484,-19.043,-19.531,898.438,0.000
1763453835.555,999.512,-10.742,-15.625,999.512,0.000
1763453835.559,406.250,-15.625,-18.555,412.598,0.000
1763453835.563,-982.422,-48.828,-25.391,-973.633,0.000
1763453835.567,-1000.000,-52.734,-23.438,-1000.000,0.000
1763453835.571,-955.566,-39.062,-20.508,-955.078,0.000
1763453835.575,-1000.000,-33.691,-19.043,-1000.000,0.000
1763453835.579,-1000.000,-35.645,-17.578,-1000.000,0.000
1763453835.583,-1000.000,-33.203,-17.090,-1000.000,0.000
1763453835.587,-944.824,-23.438,-18.555,-995.605,0.000
1763453835.591,-1000.000,-22.461,-20.020,-945.801,0.000
1763453835.594,-770.508,-22.949,-15.625,-1000.000,0.000
1763453835.598,607.422,-9.766,-16.113,-134.277,0.000
1763453835.602,999.512,-0.488,-16.602,999.512,0.000
1763453835.606,910.156,-9.766,-15.137,946.289,0.000
1763453835.610,978.516,-28.809,-20.508,935.059,0.000
1763453835.614,909.668,-31.250,-18.555,942.871,0.000
1763453835.618,999.512,-24.902,-15.137,999.512,0.000
1763453835.622,153.809,-43.945,-12.695,-28.809,0.000
1763453835.626,-1000.000,-55.176,-14.160,-1000.000,0.000
1763453835.630,-979.004,-44.922,-20.020,-967.773,0.000
1763453835.633,-975.586,-40.039,-17.578,-984.863,0.000
1763453835.637,-1000.000,-34.180,-17.578,-1000.000,0.000
1763453835.641,-1000.000,-31.738,-22.949,-1000.000,0.000
1763453835.645,-1000.000,-32.227,-20.508,-1000.000,0.000
1763453835.649,-1000.000,-28.809,-17.578,-1000.000,0.000
1763453835.653,-993.164,-24.414,-20.508,-1000.000,0.000
1763453835.657,-951.172,-35.156,-21.973,-935.059,0.000
1763453835.661,-1000.000,-47.852,-17.090,-1000.000,0.000
1763453835.665,-98.145,-28.809,-17.578,-257.324,0.000
1763453835.669,999.512,-11.719,-17.578,999.512,0.000
1763453835.672,939.453,-18.066,-19.531,959.961,0.000
1763453835.677,950.684,-14.648,-20.996,939.941,0.000
1763453835.681,981.445,-15.625,-20.996,987.305,0.000
1763453835.684,898.926,-25.391,-18.066,899.414,0.000
1763453835.688,999.512,-25.879,-18.555,999.512,0.000
1763453835.692,325.195,-32.227,-19.531,369.629,0.000
1763453835.696,-1000.000,-46.875,-14.648,-997.070,0.000
1763453835.700,-1000.000,-44.434,-18.555,-1000.000,0.000
1763453835.704,-961.914,-40.039,-23.926,-958.496,0.000
1763453835.708,-1000.000,-35.156,-15.137,-1000.000,0.000
1763453835.712,-1000.000,-30.273,-13.672,-1000.000,0.000
1763453835.716,-1000.000,-28.320,-26.855,-1000.000,0.000
1763453835.719,-1000.000,-27.832,-25.879,-1000.000,0.000
1763453835.723,0.000,-33.691,-17.578,-1000.000,0.000
1763453835.727,0.000,-31.250,-21.973,-1000.000,0.000
1763453835.731,0.000,-23.438,-20.508,-1000.000,0.000
1763453835.735,0.000,-26.367,-20.508,-928.711,0.000
1763453835.739,0.000,-28.320,-23.926,-1000.000,0.000
1763453835.743,0.000,-14.648,-20.020,-418.945,0.000
1763453835.747,0.000,7.324,-19.531,957.520,0.000
1763453835.751,0.000,1.465,-23.438,989.258,0.000
1763453835.755,0.000,-16.113,-28.809,926.758,0.000
1763453835.758,0.000,-24.902,-28.320,989.258,0.000
1763453835.762,0.000,-31.250,-29.297,939.453,0.000
1763453835.766,0.000,-26.855,-30.762,966.797,0.000
1763453835.770,999.512,-19.531,-31.738,985.352,0.000
1763453835.774,-227.051,-44.922,-28.809,-265.137,0.000
1763453835.778,-1000.000,-62.500,-24.902,-1000.000,0.000
1763453835.782,-939.941,-53.711,-23.438,-942.871,0.000
1763453835.786,-1000.000,-47.363,-17.090,-1000.000,0.000
1763453835.790,-1000.000,-32.227,-11.719,-1000.000,0.000
1763453835.794,-1000.000,-28.320,-19.043,-1000.000,0.000
1763453835.798,-930.664,-36.621,-26.855,-1000.000,0.000
1763453835.801,-1000.000,-33.691,-24.414,-1000.000,0.000
1763453835.805,-497.559,-29.297,-19.531,-1000.000,0.000
1763453835.809,893.555,-19.043,-20.020,-1000.000,0.000
1763453835.813,999.512,-18.555,-26.367,-1000.000,0.000
1763453835.817,922.363,-25.879,-10.254,-1000.000,0.000
1763453835.821,979.004,-27.344,-12.695,-1000.000,0.000
1763453835.825,916.504,-17.090,-22.949,-1000.000,0.000
1763453835.829,999.512,-17.090,-20.020,-1000.000,0.000
1763453835.833,130.859,-27.344,-20.996,-1000.000,0.000
1763453835.837,-1000.000,-21.484,-18.555,-1000.000,0.000
1763453835.841,-980.957,-24.414,-20.996,-1000.000,0.000
1763453835.844,-986.328,-34.668,-25.879,-1000.000,0.000
1763453835.848,-937.500,-35.156,-28.320,-1000.000,0.000
1763453835.852,-1000.000,-36.133,-17.090,-1000.000,0.000
1763453835.856,-481.934,-21.973,-15.137,-941.895,0.000
1763453835.860,902.344,-6.348,-29.785,-1000.000,0.000
1763453835.864,999.512,-2.441,-27.344,-689.941,0.000
1763453835.868,921.875,8.301,-22.949,685.547,0.000
1763453835.872,981.934,10.254,-20.996,999.512,0.000
1763453835.876,979.980,-8.789,-19.531,925.293,0.000
1763453835.880,929.199,-15.137,-19.043,934.082,0.000
1763453835.884,986.328,-3.418,-18.066,999.512,0.000
1763453835.887,943.359,-5.859,-18.066,858.887,0.000
1763453835.891,-393.066,-40.527,-20.508,-495.605,0.000
1763453835.895,-1000.000,-55.176,-22.949,-1000.000,0.000
1763453835.899,-934.570,-43.945,-23.926,-937.012,0.000
1763453835.903,-1000.000,-39.062,-28.320,-1000.000,0.000
1763453835.907,-1000.000,-31.250,-18.066,-1000.000,0.000
1763453835.911,-1000.000,-27.832,-23.438,-1000.000,0.000
1763453835.915,-946.777,-31.250,-39.062,-1000.000,0.000
1763453835.919,-1000.000,-28.320,-31.250,-958.984,0.000
1763453835.923,-795.410,-22.461,-20.996,-1000.000,0.000
1763453835.927,574.219,-18.555,-24.902,-873.535,0.000
1763453835.930,999.512,-3.418,-15.625,417.969,0.000
1763453835.934,909.180,-0.977,-17.090,999.512,0.000
1763453835.938,982.422,-18.066,-29.297,919.922,0.000
1763453835.942,954.590,-23.438,-23.438,951.172,0.000
1763453835.946,932.129,-19.043,-19.531,952.637,0.000
1763453835.950,999.512,-13.184,-17.090,999.512,0.000
1763453835.954,-59.570,-32.227,-21.484,-162.109,0.000
1763453835.958,-1000.000,-51.758,-24.414,-1000.000,0.000
1763453835.962,-952.637,-40.527,-22.949,-951.660,0.000
1763453835.966,-991.211,-39.551,-21.484,-994.141,0.000
1763453835.969,-1000.000,-46.875,-22.949,-1000.000,0.000
1763453835.973,-1000.000,-46.875,-30.273,-1000.000,0.000
1763453835.977,-1000.000,-37.598,-33.691,-1000.000,0.000
1763453835.981,-1000.000,-37.109,-26.367,-1000.000,0.000
1763453835.985,-965.820,-45.410,-21.973,-983.398,0.000
1763453835.989,-1000.000,-38.574,-30.273,-967.285,0.000
1763453835.993,-984.375,-28.809,-30.762,-1000.000,0.000
1763453835.997,303.223,-8.301,-18.066,49.805,0.000
1763453836.001,999.512,-6.348,-25.879,999.512,0.000
1763453836.005,908.203,-19.043,-29.785,922.852,0.000
1763453836.009,972.656,-23.926,-25.879,961.426,0.000
1763453836.012,969.727,-31.250,-25.391,972.168,0.000
1763453836.016,969.727,-29.785,-22.461,970.215,0.000
1763453836.020,981.934,-33.203,-33.203,984.375,0.000
1763453836.024,896.484,-25.391,-35.645,900.879,0.000
1763453836.028,999.512,-21.973,-29.297,999.512,0.000
1763453836.032,459.961,-48.340,-24.414,604.004,0.000
1763453836.036,-950.684,-60.059,-20.020,-827.148,0.000
1763453836.040,-1000.000,-41.016,-25.391,-1000.000,0.000
1763453836.044,-951.172,-36.621,-31.250,-942.383,0.000
1763453836.047,-1000.000,-39.062,-21.973,-1000.000,0.000
1763453836.051,-1000.000,-28.809,-23.926,-1000.000,0.000
1763453836.055,-1000.000,-19.531,-28.320,-1000.000,0.000
1763453836.059,-945.801,-18.555,-34.668,-1000.000,0.000
1763453836.063,-1000.000,-25.879,-38.574,-937.988,0.000
1763453836.067,-756.836,-26.855,-32.227,-1000.000,0.000
1763453836.071,610.840,-0.977,-37.598,-218.750,0.000
1763453836.075,999.512,8.789,-43.457,999.512,0.000
1763453836.079,924.316,-14.648,-45.410,966.797,0.000
1763453836.083,925.293,-20.508,-34.180,882.324,0.000
1763453836.087,999.512,-16.602,-29.297,999.512,0.000
1763453836.090,823.242,-19.043,-31.738,687.988,0.000
1763453836.094,-577.637,-38.086,-35.645,-709.961,0.000
1763453836.098,-1000.000,-40.039,-36.133,-1000.000,0.000
1763453836.102,-934.082,-28.809,-32.715,-940.918,0.000
1763453836.106,-1000.000,-24.414,-32.715,-1000.000,0.000
1763453836.110,-1000.000,-20.508,-27.832,-1000.000,0.000
1763453836.114,-1000.000,-26.855,-24.414,-1000.000,0.000
1763453836.118,-933.105,-20.020,-27.832,-974.121,0.000
1763453836.122,-1000.000,-19.043,-26.367,-986.328,0.000
1763453836.126,-583.496,-35.645,-25.879,-1000.000,0.000
1763453836.130,817.383,-11.719,-22.949,175.781,0.000
1763453836.133,999.512,3.418,-19.043,999.512,0.000
1763453836.137,916.016,-5.371,-20.996,914.062,0.000
1763453836.141,982.422,-7.324,-23.438,967.773,0.000
1763453836.145,974.121,-11.230,-20.508,974.609,0.000
1763453836.149,949.219,-13.184,-25.879,953.613,0.000
1763453836.153,941.895,-16.602,-31.250,939.941,0.000
1763453836.157,999.512,-16.602,-28.320,999.512,0.000
1763453836.161,-125.488,-29.785,-26.367,-76.660,0.000
1763453836.165,-1000.000,-37.109,-27.344,-1000.000,0.000
1763453836.169,-947.754,-23.926,-27.832,-958.984,0.000
1763453836.173,-994.629,-32.227,-19.043,-989.258,0.000
1763453836.176,-1000.000,-31.738,-18.555,-1000.000,0.000
1763453836.180,-1000.000,-26.367,-27.832,-1000.000,0.000
1763453836.184,-937.012,-24.414,-37.598,-933.594,0.000
1763453836.188,-1000.000,-23.926,-41.504,-1000.000,0.000
1763453836.192,-226.562,-13.184,-33.691,-292.969,0.000
1763453836.196,999.512,3.906,-25.879,999.512,0.000
1763453836.200,954.590,-0.977,-23.438,966.309,0.000
1763453836.204,941.895,-7.324,-19.043,937.012,0.000
1763453836.208,976.562,-15.625,-16.113,979.004,0.000
1763453836.212,969.727,-7.324,-14.160,970.215,0.000
1763453836.215,972.656,-4.395,-18.066,970.215,0.000
1763453836.219,958.008,-19.043,-21.973,974.121,0.000
1763453836.223,929.688,-20.020,-23.438,903.809,0.000
1763453836.227,999.512,-13.672,-25.391,999.512,0.000
1763453836.231,1.953,-29.785,-22.949,255.371,0.000
1763453836.235,-1000.000,-51.758,-23.438,-1000.000,0.000
1763453836.239,-965.332,-38.086,-25.391,-995.117,0.000
1763453836.243,-984.863,-30.762,-29.785,-967.773,0.000
1763453836.247,-1000.000,-30.273,-28.809,-1000.000,0.000
1763453836.251,-1000.000,-29.785,-26.367,-1000.000,0.000
1763453836.255,-932.617,-32.715,-22.949,-982.422,0.000
1763453836.258,-1000.000,-20.020,-17.578,-969.238,0.000
1763453836.262,-583.496,-18.555,-17.090,-1000.000,0.000
1763453836.266,820.312,-8.301,-22.949,56.152,0.000
1763453836.270,999.512,3.906,-17.090,999.512,0.000
1763453836.274,916.016,-6.836,-20.020,923.340,0.000
1763453836.278,996.094,-7.324,-28.320,972.656,0.000
1763453836.282,895.508,0.488,-23.438,901.367,0.000
1763453836.286,999.512,-5.859,-28.320,999.512,0.000
1763453836.290,488.770,-31.250,-37.109,457.031,0.000
1763453836.294,-937.500,-52.246,-36.621,-938.965,0.000
1763453836.298,-1000.000,-42.969,-28.809,-1000.000,0.000
1763453836.301,-948.730,-31.250,-32.227,-952.148,0.000
1763453836.305,-1000.000,-19.531,-32.715,-1000.000,0.000
1763453836.309,-1000.000,-18.555,-27.344,-1000.000,0.000
1763453836.313,-1000.000,-32.227,-25.879,-1000.000,0.000
1763453836.317,-934.570,-33.203,-30.762,-980.957,0.000
1763453836.321,-1000.000,-24.902,-28.809,-971.680,0.000
1763453836.325,-609.863,-17.578,-21.973,-1000.000,0.000
1763453836.329,791.016,0.000,-6.348,77.637,0.000
1763453836.333,999.512,10.742,-0.488,999.512,0.000
1763453836.337,915.039,3.906,-30.273,921.387,0.000
1763453836.340,983.398,1.953,-31.250,963.867,0.000
1763453836.344,965.332,-2.441,-24.902,967.285,0.000
1763453836.348,914.551,-14.160,-25.391,916.504,0.000
1763453836.352,999.512,-11.230,-20.996,999.512,0.000
1763453836.356,106.934,-31.738,-20.020,109.863,0.000
1763453836.360,-1000.000,-57.617,-17.090,-1000.000,0.000
1763453836.364,-973.145,-42.969,-19.043,-975.098,0.000
1763453836.368,-979.004,-33.691,-22.949,-978.516,0.000
1763453836.372,-1000.000,-22.949,-21.973,-1000.000,0.000
1763453836.376,-1000.000,-16.113,-17.578,-1000.000,0.000
1763453836.380,-937.500,-15.625,-14.648,-934.570,0.000
1763453836.383,-1000.000,-21.973,-12.695,-1000.000,0.000
1763453836.387,-219.727,-15.137,-14.648,-269.531,0.000
1763453836.391,999.512,6.836,-18.066,999.512,0.000
1763453836.395,953.125,6.348,-20.996,962.402,0.000
1763453836.399,942.383,7.812,-14.648,938.965,0.000
1763453836.403,976.074,0.000,-16.602,978.516,0.000
1763453836.407,981.445,-18.066,-19.531,977.539,0.000
1763453836.411,919.922,-18.066,-4.883,937.012,0.000
1763453836.415,999.512,-10.254,-11.719,972.656,0.000
1763453836.418,841.797,-10.254,-19.043,967.285,0.000
1763453836.422,-530.273,-38.086,-11.230,-302.734,0.000
1763453836.426,-1000.000,-46.387,0.000,-1000.000,0.000
1763453836.430,-936.035,-30.273,0.000,-941.406,0.000
1763453836.434,-1000.000,-28.809,0.000,-1000.000,0.000
1763453836.438,-986.328,-30.762,0.000,-984.375,0.000
1763453836.442,-959.961,-26.855,0.000,-968.750,0.000
1763453836.446,-1000.000,-13.672,0.000,-1000.000,0.000
1763453836.450,4.883,-0.977,0.000,33.691,0.000
1763453836.454,999.512,2.930,0.000,999.512,0.000
1763453836.458,924.316,-10.254,0.000,929.199,0.000
1763453836.461,972.656,-5.859,0.000,969.727,0.000
1763453836.465,912.109,1.465,0.000,925.293,0.000
1763453836.469,999.512,-11.719,0.000,999.512,0.000
1763453836.473,758.789,-19.531,-20.508,859.375,0.000
1763453836.477,-657.227,-40.527,-24.414,-500.488,0.000
1763453836.481,-1000.000,-48.828,-20.996,-1000.000,0.000
1763453836.485,-936.035,-31.738,-17.090,-936.523,0.000
1763453836.489,-1000.000,-25.879,-14.648,-1000.000,0.000
1763453836.493,-1000.000,-18.555,-19.043,-1000.000,0.000
1763453836.497,-1000.000,-21.484,-26.367,-1000.000,0.000
1763453836.501,-991.699,-28.809,-25.391,-1000.000,0.000
1763453836.504,-953.125,-25.391,-11.230,-1000.000,0.000
1763453836.508,-1000.000,-25.879,-10.742,-1000.000,0.000
1763453836.512,-83.496,-15.625,-23.926,-1000.000,0.000
1763453836.516,999.512,-9.277,-13.672,-1000.000,0.000
1763453836.520,937.988,-10.742,-14.160,-1000.000,0.000
1763453836.524,951.660,-15.137,-19.043,-1000.000,0.000
1763453836.528,974.121,-16.602,-13.184,-1000.000,0.000
1763453836.532,969.727,-7.324,-15.137,-1000.000,0.000
1763453836.536,969.727,-10.254,-20.020,-935.547,0.000
1763453836.540,969.727,-11.230,-18.066,-1000.000,0.000
1763453836.544,969.727,-9.277,-18.066,-284.668,0.000
1763453836.547,969.727,-6.348,-24.414,999.512,0.000
1763453836.551,969.727,-10.742,-8.789,966.309,0.000
1763453836.555,969.727,-18.555,-14.648,937.012,0.000
1763453836.559,979.492,-8.789,-31.738,992.676,0.000
1763453836.563,897.461,-11.230,-27.344,900.879,0.000
1763453836.567,0.000,-8.789,0.000,999.512,0.000
1763453836.571,0.000,-12.207,0.000,570.801,0.000
1763453836.575,0.000,-43.457,0.000,-852.539,0.000
1763453836.579,0.000,-44.434,0.000,-1000.000,0.000
1763453836.583,0.000,-30.273,0.000,-944.824,0.000
1763453836.587,0.000,-22.949,0.000,-1000.000,0.000
1763453836.591,0.000,-19.043,0.000,-1000.000,0.000
1763453836.594,0.000,-21.973,0.000,-928.711,0.000
1763453836.598,0.000,-21.484,0.000,-1000.000,0.000
1763453836.602,0.000,-19.531,0.000,-435.547,0.000
1763453836.606,0.000,-8.789,0.000,947.754,0.000
1763453836.610,0.000,0.977,0.000,992.676,0.000
1763453836.614,928.223,5.859,-38.574,925.293,0.000
1763453836.618,980.957,2.930,-35.156,982.422,0.000
1763453836.622,969.238,-4.395,-33.691,970.215,0.000
1763453836.626,978.027,0.488,-39.062,971.191,0.000
1763453836.630,933.105,5.371,-38.086,966.797,0.000
1763453836.634,981.445,5.859,-39.551,914.062,0.000
1763453836.637,936.035,3.906,-40.527,999.512,0.000
1763453836.641,-349.609,-22.949,-44.922,117.676,0.000
1763453836.645,-1000.000,-38.574,-51.758,-1000.000,0.000
1763453836.649,-941.406,-24.414,-46.875,-974.609,0.000
1763453836.653,-1000.000,-11.719,-47.363,-990.234,0.000
1763453836.657,-926.758,-7.812,-49.805,-934.082,0.000
1763453836.661,-1000.000,-12.207,-40.527,-1000.000,0.000
1763453836.665,-500.000,-7.812,-34.180,-502.441,0.000
1763453836.669,917.480,9.277,-37.109,900.391,0.000
1763453836.673,999.512,10.742,-41.016,999.512,0.000
1763453836.677,919.434,-0.977,-31.738,920.410,0.000
1763453836.680,989.258,-0.977,-30.273,987.793,0.000
1763453836.684,945.801,5.371,-32.715,951.660,0.000
1763453836.688,949.219,-3.418,-26.855,940.918,0.000
1763453836.692,999.512,-17.090,-30.273,999.512,0.000
1763453836.696,-174.805,-33.691,-33.691,-99.121,0.000
1763453836.700,-1000.000,-43.457,-30.762,-1000.000,0.000
1763453836.704,-944.336,-26.367,-24.902,-952.637,0.000
1763453836.708,-997.070,-21.973,-23.926,-992.188,0.000
1763453836.712,-1000.000,-25.879,-24.902,-1000.000,0.000
1763453836.716,-1000.000,-25.879,-20.508,-1000.000,0.000
1763453836.719,-931.641,-24.414,-16.602,-1000.000,0.000
1763453836.723,-1000.000,-21.484,-21.973,-1000.000,0.000
1763453836.727,-562.012,-15.137,-18.066,-1000.000,0.000
1763453836.731,843.262,-6.836,-22.461,-1000.000,0.000
1763453836.735,999.512,-14.648,-30.762,-1000.000,0.000
1763453836.739,916.992,-9.277,-23.926,-1000.000,0.000
1763453836.743,991.699,-5.371,-18.555,-1000.000,0.000
1763453836.747,928.223,-21.973,-24.414,-1000.000,0.000
1763453836.751,998.535,-22.461,-28.809,-1000.000,0.000
1763453836.755,862.793,-16.113,-25.391,-1000.000,0.000
1763453836.759,-437.500,-28.320,-26.855,-1000.000,0.000
1763453836.762,-1000.000,-36.133,-23.926,-1000.000,0.000
1763453836.766,-941.895,-30.762,-19.043,-1000.000,0.000
1763453836.770,-944.824,-26.855,-22.461,-938.477,0.000
1763453836.774,-1000.000,-17.090,-21.973,-1000.000,0.000
1763453836.778,-184.082,-1.465,-21.484,-205.078,0.000
1763453836.782,999.512,1.465,-24.414,999.512,0.000
1763453836.786,948.730,-8.789,-18.555,952.148,0.000
1763453836.790,944.824,-11.719,-17.578,943.848,0.000
1763453836.794,975.586,-9.766,-15.137,976.562,0.000
1763453836.797,969.727,-4.395,-17.090,970.215,0.000
1763453836.801,969.238,-10.254,-23.438,980.957,0.000
1763453836.805,908.203,-19.531,-16.113,898.438,0.000
1763453836.809,999.512,-9.766,-11.719,999.512,0.000
1763453836.813,171.387,-20.996,-13.184,423.340,0.000
1763453836.817,-1000.000,-48.340,-18.555,-968.750,0.000
1763453836.821,-981.445,-32.227,-20.508,-1000.000,0.000
1763453836.825,-974.121,-21.973,-23.438,-954.102,0.000
1763453836.829,-1000.000,-37.109,-24.414,-1000.000,0.000
1763453836.833,-970.703,-36.133,-25.391,-967.285,0.000
1763453836.837,-990.723,-27.344,-18.555,-1000.000,0.000
1763453836.840,-1000.000,-24.902,-11.230,-994.141,0.000
1763453836.844,216.309,-9.277,-13.672,273.926,0.000
1763453836.848,999.512,-1.953,-21.973,999.512,0.000
1763453836.852,908.203,-12.207,-17.090,911.621,0.000
1763453836.856,970.703,-13.672,-11.719,971.680,0.000
1763453836.860,975.098,-17.578,-22.461,970.703,0.000
1763453836.864,947.266,-25.391,-19.043,973.145,0.000
1763453836.868,948.242,-22.461,-12.207,955.078,0.000
1763453836.872,999.512,-16.113,-12.207,941.406,0.000
1763453836.876,-145.020,-30.273,-13.184,999.512,0.000
1763453836.879,-1000.000,-42.969,-16.113,-54.199,0.000
1763453836.883,-951.172,-48.340,-21.973,-1000.000,0.000
1763453836.887,-993.652,-42.969,-17.578,-966.797,0.000
1763453836.891,-1000.000,-28.809,-14.160,-985.840,0.000
1763453836.895,-1000.000,-23.926,-15.625,-1000.000,0.000
1763453836.899,-1000.000,-25.879,-19.043,-1000.000,0.000
1763453836.903,-982.422,-25.391,-15.625,-1000.000,0.000
1763453836.907,-974.121,-25.391,-13.184,-930.664,0.000
1763453836.911,-1000.000,-18.555,-7.324,-1000.000,0.000
1763453836.915,53.223,1.465,-6.836,-485.840,0.000
1763453836.919,999.512,8.301,-19.043,910.156,0.000
1763453836.922,911.133,-7.324,-20.020,967.285,0.000
1763453836.926,926.758,-13.672,-19.043,933.594,0.000
1763453836.930,999.512,-13.672,-16.113,949.707,0.000
1763453836.934,-111.328,-33.203,-8.301,-344.727,0.000
1763453836.938,-1000.000,-40.527,-9.277,-1000.000,0.000
1763453836.942,-947.266,-27.344,-17.090,-941.895,0.000
1763453836.946,-994.629,-28.320,-20.508,-1000.000,0.000
1763453836.950,-1000.000,-26.855,-14.160,-1000.000,0.000
1763453836.954,-931.152,-23.438,-12.695,-989.258,0.000
1763453836.958,-1000.000,-21.484,-11.719,-958.008,0.000
1763453836.962,-500.977,-14.648,-8.789,-1000.000,0.000
1763453836.965,886.719,-0.977,-12.695,-45.410,0.000
1763453836.969,999.512,2.441,-11.719,999.512,0.000
1763453836.973,920.898,-14.160,-8.789,935.059,0.000
1763453836.977,982.422,-23.438,-16.113,954.590,0.000
1763453836.981,972.656,-24.414,-19.531,977.051,0.000
1763453836.985,954.102,-24.414,-18.066,957.031,0.000
1763453836.989,932.617,-24.902,-16.113,933.105,0.000
1763453836.993,999.512,-23.926,-14.648,999.512,0.000
1763453836.997,-57.129,-40.039,-17.090,-20.508,0.000
1763453837.001,-1000.000,-51.758,-21.973,-1000.000,0.000
1763453837.005,-953.613,-39.062,-17.578,-963.379,0.000
1763453837.008,-990.723,-29.785,-13.184,-986.328,0.000
1763453837.012,-1000.000,-30.273,-20.996,-1000.000,0.000
1763453837.016,-938.477,-38.574,-20.508,-939.941,0.000
1763453837.020,-1000.000,-43.945,-19.043,-1000.000,0.000
1763453837.024,-207.520,-20.020,-15.625,-191.895,0.000
1763453837.028,999.512,0.488,-10.254,999.512,0.000
1763453837.032,951.660,-15.137,-13.184,950.195,0.000
1763453837.036,0.000,-22.949,-14.160,944.824,0.000
1763453837.040,0.000,-23.438,-17.578,976.074,0.000
1763453837.044,0.000,-16.602,-8.301,970.215,0.000
1763453837.047,0.000,-18.555,-0.977,970.703,0.000
1763453837.051,0.000,-23.926,-11.230,981.445,0.000
1763453837.055,0.000,-15.137,-13.672,906.738,0.000
1763453837.059,0.000,-7.324,-4.883,999.512,0.000
1763453837.063,0.000,-31.250,-9.766,569.336,0.000
1763453837.067,0.000,-55.664,-16.602,-813.965,0.000
1763453837.071,0.000,-42.480,-13.184,-1000.000,0.000
1763453837.075,0.000,-30.762,-12.695,-876.465,0.000
1763453837.079,0.000,-34.668,-9.766,-1000.000,0.000
1763453837.083,-503.906,-23.438,-7.324,-409.668,0.000
1763453837.087,916.992,-0.488,-9.766,960.938,0.000
1763453837.090,999.512,-6.836,-8.789,987.793,0.000
1763453837.094,919.434,-16.113,-13.184,927.246,0.000
1763453837.098,983.887,-11.719,-13.672,981.934,0.000
1763453837.102,975.586,2.441,-8.301,984.375,0.000
1763453837.106,900.879,9.277,-9.766,900.879,0.000
1763453837.110,999.512,-11.719,-14.160,999.512,0.000
1763453837.114,299.316,-27.344,-15.137,582.031,0.000
1763453837.118,-1000.000,-40.039,-16.113,-843.262,0.000
1763453837.122,-1000.000,-40.527,-15.625,-1000.000,0.000
1763453837.126,-964.355,-31.738,-21.973,-943.848,0.000
1763453837.130,-1000.000,-29.297,-25.391,-1000.000,0.000
1763453837.133,-1000.000,-30.762,-20.508,-1000.000,0.000
1763453837.137,-1000.000,-28.809,-17.090,-1000.000,0.000
1763453837.141,-938.965,-24.414,-18.555,-1000.000,0.000
1763453837.145,-1000.000,-30.273,-22.949,-1000.000,0.000
1763453837.149,-204.590,-19.531,-18.555,-1000.000,0.000
1763453837.153,999.512,-6.348,-16.113,-1000.000,0.000
1763453837.157,951.660,-20.020,-19.043,-1000.000,0.000
1763453837.161,943.359,-16.113,-20.508,-1000.000,0.000
1763453837.165,987.305,-4.395,-19.531,-1000.000,0.000
1763453837.168,903.809,-8.301,-18.066,-1000.000,0.000
1763453837.172,999.512,-10.742,-18.066,-1000.000,0.000
1763453837.176,527.344,-10.742,-13.672,-1000.000,0.000
1763453837.180,-860.840,-15.137,-10.254,-1000.000,0.000
1763453837.184,-1000.000,-10.742,-16.602,-1000.000,0.000
1763453837.188,-908.691,-11.230,-23.926,-979.492,0.000
1763453837.192,-1000.000,-19.043,-22.949,-975.098,0.000
1763453837.196,-953.125,-10.254,-17.578,-1000.000,0.000
1763453837.200,367.676,8.789,-17.578,103.027,0.000
1763453837.204,999.512,-3.906,-12.695,999.512,0.000
1763453837.207,906.738,-13.672,-19.043,918.945,0.000
1763453837.211,975.098,-4.395,-22.949,964.355,0.000
1763453837.215,971.680,-8.301,-15.625,971.680,0.000
1763453837.219,960.449,-8.789,-14.160,976.562,0.000
1763453837.223,923.828,-14.648,-17.578,901.367,0.000
1763453837.227,999.512,-17.578,-22.949,999.512,0.000
1763453837.231,43.457,-30.762,-24.414,307.617,0.000
1763453837.235,-1000.000,-55.664,-18.555,-1000.000,0.000
1763453837.239,-968.750,-51.758,-14.648,-1000.000,0.000
1763453837.243,-988.770,-23.438,-13.672,-970.703,0.000
1763453837.247,-978.516,-16.602,-13.184,-976.074,0.000
1763453837.250,-983.398,-28.809,-14.648,-1000.000,0.000
1763453837.254,-1000.000,-24.414,-16.602,-955.078,0.000
1763453837.258,174.316,-8.301,-25.391,306.152,0.000
1763453837.262,999.512,-3.906,-22.461,999.512,0.000
1763453837.266,910.156,-5.371,-19.531,914.551,0.000
1763453837.270,968.750,-10.254,-26.367,971.191,0.000
1763453837.274,970.215,-24.414,-24.414,970.703,0.000
1763453837.278,969.727,-30.273,-20.996,970.215,0.000
1763453837.282,979.980,-29.785,-20.020,970.215,0.000
1763453837.286,899.414,-21.973,-20.020,970.215,0.000
1763453837.290,999.512,-7.812,-17.578,970.215,0.000
1763453837.293,434.570,-10.254,-20.996,970.215,0.000
1763453837.297,-949.707,-30.762,-20.508,970.215,0.000
1763453837.301,-1000.000,-27.344,-12.207,970.215,0.000
1763453837.305,-953.613,-21.484,-11.719,972.168,0.000
1763453837.309,-1000.000,-25.879,-8.301,963.867,0.000
1763453837.313,-1000.000,-22.461,-7.812,920.898,0.000
1763453837.317,-1000.000,-20.508,-10.742,999.512,0.000
1763453837.321,-1000.000,-36.133,-9.766,83.008,0.000
1763453837.325,-1000.000,-41.504,-6.348,-1000.000,0.000
1763453837.329,-1000.000,-29.785,-1.953,-974.121,0.000
1763453837.333,-1000.000,-24.414,-5.371,-979.492,0.000
1763453837.336,-1000.000,-16.602,-10.254,-1000.000,0.000
1763453837.340,-929.688,-20.020,-18.066,-1000.000,0.000
1763453837.344,-1000.000,-34.180,-20.508,-1000.000,0.000
1763453837.348,-423.828,-30.273,-22.949,-1000.000,0.000
1763453837.352,949.219,-15.625,-25.391,-1000.000,0.000
1763453837.356,990.234,-15.137,-23.438,-1000.000,0.000
1763453837.360,926.758,-20.020,-23.438,-1000.000,0.000
1763453837.364,0.000,-20.020,0.000,-1000.000,0.000
1763453837.368,0.000,-18.066,0.000,-1000.000,0.000
1763453837.372,0.000,-18.066,0.000,-1000.000,0.000
1763453837.375,0.000,-28.320,0.000,-1000.000,0.000
1763453837.379,0.000,-35.645,0.000,-1000.000,0.000
1763453837.383,0.000,-27.832,0.000,-1000.000,0.000
1763453837.387,0.000,-23.926,0.000,-1000.000,0.000
1763453837.391,0.000,-28.809,0.000,-956.543,0.000
1763453837.395,0.000,-35.645,0.000,-1000.000,0.000
1763453837.399,0.000,-28.809,0.000,-925.293,0.000
1763453837.403,0.000,-4.395,0.000,410.645,0.000
1763453837.407,0.000,-1.953,0.000,999.512,0.000
1763453837.411,927.734,-6.836,-17.090,907.715,0.000
1763453837.415,981.445,-4.395,-13.672,977.051,0.000
1763453837.418,969.727,-8.789,-19.043,970.215,0.000
1763453837.422,979.980,-12.695,-18.555,982.910,0.000
1763453837.426,897.949,-11.230,-18.555,916.504,0.000
1763453837.430,999.512,-5.859,-15.625,999.512,0.000
1763453837.434,411.133,-10.742,-14.160,808.594,0.000
1763453837.438,-972.656,-40.039,-19.043,-580.566,0.000
1763453837.442,-1000.000,-50.293,-22.461,-1000.000,0.000
1763453837.446,-955.078,-39.551,-20.020,-936.035,0.000
1763453837.450,-1000.000,-36.621,-20.996,-1000.000,0.000
1763453837.454,-995.117,-30.273,-17.578,-991.699,0.000
1763453837.458,-945.801,-28.320,-6.348,-953.125,0.000
1763453837.461,-1000.000,-30.273,-10.254,-1000.000,0.000
1763453837.465,-127.441,-9.277,-24.902,-80.566,0.000
1763453837.469,999.512,4.395,-27.832,999.512,0.000
1763453837.473,940.430,-0.488,-20.996,937.988,0.000
1763453837.477,949.219,0.488,-15.137,952.148,0.000
1763453837.481,976.074,2.930,-15.625,974.609,0.000
1763453837.485,962.891,-6.836,-14.648,970.215,0.000
1763453837.489,919.922,-21.973,-13.184,970.215,0.000
1763453837.493,999.512,-17.090,-10.254,970.215,0.000
1763453837.496,76.660,-22.949,-12.695,970.215,0.000
1763453837.500,-1000.000,-27.832,-13.184,970.215,0.000
1763453837.504,-971.680,-22.949,-10.254,970.215,0.000
1763453837.508,-980.469,-20.508,-9.277,970.215,0.000
1763453837.512,-1000.000,-16.602,-11.230,970.215,0.000
1763453837.516,-932.617,-21.973,-15.137,970.215,0.000
1763453837.520,-1000.000,-19.043,-13.184,970.215,0.000
1763453837.524,-309.082,-5.371,-13.184,973.633,0.000
1763453837.528,985.352,-7.812,-16.113,955.078,0.000
1763453837.532,937.500,-22.461,-24.902,935.547,0.000
1763453837.536,999.512,-18.066,-24.902,999.512,0.000
1763453837.539,-89.355,-26.367,-19.043,-45.410,0.000
1763453837.543,-1000.000,-40.527,-27.344,-1000.000,0.000
1763453837.547,-949.707,-39.551,-29.785,-959.961,0.000
1763453837.551,-993.164,-35.156,-27.344,-987.793,0.000
1763453837.555,-1000.000,-36.133,-27.344,-1000.000,0.000
1763453837.559,-1000.000,-37.109,-25.391,-1000.000,0.000
1763453837.563,-931.641,-26.855,-26.367,-1000.000,0.000
1763453837.567,-1000.000,-30.273,-27.832,-1000.000,0.000
1763453837.571,-554.688,-25.391,-27.344,-1000.000,0.000
1763453837.575,848.145,-20.996,-30.762,-1000.000,0.000
1763453837.578,999.512,-34.180,-36.621,-1000.000,0.000
1763453837.582,917.969,-33.203,-39.551,-1000.000,0.000
1763453837.586,982.910,-29.297,-41.016,-1000.000,0.000
1763453837.590,969.727,-27.344,-35.156,-1000.000,0.000
1763453837.594,969.727,-28.320,-34.180,-1000.000,0.000
1763453837.598,969.727,-17.578,-36.621,-934.082,0.000
1763453837.602,969.727,-17.090,-37.109,-1000.000,0.000
1763453837.606,969.727,-13.672,-33.691,-295.410,0.000
1763453837.610,969.727,0.000,-22.949,999.512,0.000
1763453837.614,969.727,-3.906,-15.137,967.285,0.000
1763453837.618,969.727,-5.371,-16.113,936.523,0.000
1763453837.621,976.562,-15.137,-22.461,983.887,0.000
1763453837.625,940.918,-28.320,-22.949,949.219,0.000
1763453837.629,959.473,-24.414,-18.555,944.824,0.000
1763453837.633,999.512,-13.184,-16.113,999.512,0.000
1763453837.637,-240.234,-30.762,-23.438,-129.883,0.000
1763453837.641,-1000.000,-46.387,-22.461,-1000.000,0.000
1763453837.645,-940.430,-31.250,-19.043,-949.707,0.000
1763453837.649,-1000.000,-24.902,-21.484,-997.559,0.000
1763453837.653,-982.910,-19.531,-18.066,-984.375,0.000
1763453837.657,-967.285,-15.137,-21.973,-968.750,0.000
1763453837.661,-1000.000,-17.578,-20.020,-1000.000,0.000
1763453837.664,63.477,-4.395,-11.719,50.781,0.000
1763453837.668,999.512,8.301,-17.090,999.512,0.000
1763453837.672,918.457,-5.371,-20.996,924.316,0.000
1763453837.676,962.402,-11.719,-32.227,960.938,0.000
1763453837.680,972.656,3.418,-48.828,972.168,0.000
1763453837.684,963.867,-5.859,-24.414,970.703,0.000
1763453837.688,918.457,-18.555,4.395,978.027,0.000
1763453837.692,999.512,-14.160,-11.230,916.992,0.000
1763453837.696,90.332,-15.625,-32.715,999.512,0.000
1763453837.700,-1000.000,-27.832,-20.508,607.422,0.000
1763453837.703,-973.633,-46.387,-18.555,-723.633,0.000
1763453837.707,-979.492,-42.969,-27.832,-1000.000,0.000
1763453837.711,-1000.000,-22.949,-14.648,-945.801,0.000
1763453837.715,-937.500,-12.695,-10.742,-951.172,0.000
1763453837.719,-1000.000,-25.391,-18.555,-1000.000,0.000
1763453837.723,-219.727,-25.391,-19.043,-177.246,0.000
1763453837.727,999.512,-0.977,-24.902,999.512,0.000
1763453837.731,953.125,-1.465,-31.250,948.730,0.000
1763453837.735,942.383,-16.113,-36.133,945.801,0.000
1763453837.739,976.562,-20.508,-40.039,976.074,0.000
1763453837.743,969.727,-21.484,-35.156,974.121,0.000
1763453837.746,907.715,-21.973,-32.227,903.809,0.000
1763453837.750,999.512,-14.160,-28.809,999.512,0.000
1763453837.754,181.152,-23.926,-21.484,250.000,0.000
1763453837.758,-1000.000,-44.922,-25.879,-1000.000,0.000
1763453837.762,-982.910,-40.527,-36.133,-994.141,0.000
1763453837.766,-973.633,-47.852,-34.668,-968.262,0.000
1763453837.770,-1000.000,-54.199,-36.621,-1000.000,0.000
1763453837.774,-1000.000,-40.039,-40.039,-1000.000,0.000
1763453837.778,-992.188,-23.438,-40.039,-1000.000,0.000
1763453837.782,-953.125,-20.020,-44.922,-1000.000,0.000
1763453837.786,-1000.000,-21.484,-44.922,-1000.000,0.000
1763453837.789,-87.891,-14.648,-41.016,-1000.000,0.000
1763453837.793,999.512,-43.457,-37.598,-1000.000,0.000
1763453837.797,939.941,-46.875,-34.668,-1000.000,0.000
1763453837.801,951.172,-4.395,-41.504,-1000.000,0.000
1763453837.805,974.609,10.742,-48.828,-1000.000,0.000
1763453837.809,969.727,14.160,-43.945,-1000.000,0.000
1763453837.813,969.727,-13.672,-43.457,-1000.000,0.000
1763453837.817,969.727,-30.273,-53.223,-985.840,0.000
1763453837.821,969.727,9.766,-49.805,-965.332,0.000
1763453837.824,969.727,21.484,-55.176,-1000.000,0.000
1763453837.828,969.727,3.418,-62.012,2.930,0.000
1763453837.832,969.727,26.367,-60.059,999.512,0.000
1763453837.836,969.727,31.250,-61.523,932.617,0.000
1763453837.840,969.727,28.320,-58.594,956.543,0.000
1763453837.844,980.957,54.199,-63.477,974.609,0.000
1763453837.848,908.691,62.988,-67.871,968.750,0.000
1763453837.852,999.512,64.941,-57.129,910.645,0.000
1763453837.856,635.254,65.918,-55.664,999.512,0.000
1763453837.860,-750.488,27.832,-66.895,154.785,0.000
1763453837.864,-1000.000,-8.301,-69.824,-1000.000,0.000
1763453837.867,-900.879,0.488,-64.453,-924.805,0.000
1763453837.871,-1000.000,6.348,-58.594,-1000.000,0.000
1763453837.875,-954.102,1.953,-54.688,-803.223,0.000
1763453837.879,396.484,36.133,-55.664,584.961,0.000
1763453837.883,999.512,61.523,-50.781,999.512,0.000
1763453837.887,903.320,78.125,-52.246,908.203,0.000
1763453837.891,977.051,86.914,-63.965,980.957,0.000
1763453837.895,969.727,83.496,-64.453,970.215,0.000
1763453837.899,979.492,90.332,-59.082,970.215,0.000
1763453837.903,898.926,79.590,-57.129,970.215,0.000
1763453837.907,999.512,59.082,-54.688,970.215,0.000
1763453837.910,409.668,57.617,-55.176,970.215,0.000
1763453837.914,-969.238,51.270,-51.758,970.215,0.000
1763453837.918,-1000.000,52.246,-46.387,970.215,0.000
1763453837.922,-955.566,55.664,-46.387,970.215,0.000
1763453837.926,-1000.000,58.105,-50.781,970.215,0.000
1763453837.930,-1000.000,61.035,-56.152,970.215,0.000
1763453837.934,-979.004,57.617,-53.223,970.215,0.000
1763453837.938,-980.469,57.129,-48.340,970.215,0.000
1763453837.942,-1000.000,61.035,-48.340,970.215,0.000
1763453837.946,100.586,72.754,-46.875,977.539,0.000
1763453837.949,999.512,69.824,-43.457,900.879,0.000
1763453837.953,999.512,59.082,-40.527,999.512,0.000
1763453837.957,94.238,49.316,-40.039,328.613,0.000
1763453837.961,-1000.000,26.367,-32.715,-1000.000,0.000
1763453837.965,-975.098,31.250,-32.227,-1000.000,0.000
1763453837.969,-978.516,41.992,-39.062,-961.914,0.000
1763453837.973,0.000,40.527,-37.109,-1000.000,0.000
1763453837.977,0.000,49.805,-32.715,-998.535,0.000
1763453837.981,0.000,56.641,-30.762,-941.406,0.000
1763453837.985,0.000,48.828,-38.086,-1000.000,0.000
1763453837.988,0.000,58.594,-38.574,-180.176,0.000
1763453837.992,0.000,73.242,-34.180,999.512,0.000
1763453837.996,0.000,62.500,-34.180,948.730,0.000
1763453838.000,0.000,51.758,-29.785,945.801,0.000
1763453838.004,0.000,46.875,-25.879,976.074,0.000
1763453838.008,0.000,47.363,-29.785,970.215,0.000
1763453838.012,0.000,41.504,-36.133,983.887,0.000
1763453838.016,0.000,39.551,-40.527,909.668,0.000
1763453838.020,999.512,48.340,-30.762,999.512,0.000
1763453838.024,367.676,39.062,-9.766,718.262,0.000
1763453838.028,-991.211,9.766,0.488,-693.359,0.000
1763453838.031,-1000.000,-2.441,-5.371,-1000.000,0.000
1763453838.035,-958.496,1.465,-9.766,-938.477,0.000
1763453838.039,-1000.000,10.254,5.371,-1000.000,0.000
1763453838.043,-1000.000,8.301,7.812,-1000.000,0.000
1763453838.047,-1000.000,-8.789,3.906,-1000.000,0.000
1763453838.051,-942.871,-16.602,15.137,-971.680,0.000
1763453838.055,-1000.000,-9.766,15.625,-990.234,0.000
1763453838.059,-780.762,-9.766,23.438,-1000.000,0.000
1763453838.063,615.234,-5.371,20.996,204.590,0.000
1763453838.067,0.000,-5.371,10.254,999.512,0.000
1763453838.071,0.000,-22.461,22.949,912.109,0.000
1763453838.074,0.000,-30.273,21.973,969.727,0.000
1763453838.078,0.000,-40.527,20.996,971.191,0.000
1763453838.082,0.000,-50.293,31.738,977.539,0.000
1763453838.086,0.000,-54.688,31.738,900.391,0.000
1763453838.090,0.000,-58.594,25.879,999.512,0.000
1763453838.094,0.000,-78.125,18.066,326.172,0.000
1763453838.098,0.000,-103.516,25.879,-1000.000,0.000
1763453838.102,0.000,-102.051,28.320,-1000.000,0.000
1763453838.106,0.000,-95.215,16.113,-961.914,0.000
1763453838.110,0.000,-87.891,23.438,-1000.000,0.000
1763453838.114,-1000.000,-81.543,29.785,-1000.000,0.000
1763453838.117,-933.594,-89.844,25.391,-936.035,0.000
1763453838.121,-1000.000,-88.867,21.973,-1000.000,0.000
1763453838.125,-295.898,-79.102,20.020,-702.148,0.000
1763453838.129,999.512,-63.965,27.832,718.750,0.000
1763453838.133,966.797,-56.152,29.785,999.512,0.000
1763453838.137,936.035,-66.895,27.832,910.156,0.000
1763453838.141,979.004,-71.777,25.879,984.375,0.000
1763453838.145,970.215,-67.383,21.973,970.215,0.000
1763453838.149,906.738,-65.430,19.531,909.180,0.000
1763453838.152,999.512,-62.500,16.113,999.512,0.000
1763453838.156,188.965,-71.289,11.719,181.152,0.000
1763453838.160,-1000.000,-82.520,8.789,-1000.000,0.000
1763453838.164,-983.887,-82.031,3.906,-983.887,0.000
1763453838.168,-973.145,-77.637,4.395,-973.145,0.000
1763453838.172,-1000.000,-70.312,5.371,-1000.000,0.000
1763453838.176,-1000.000,-70.801,5.859,-1000.000,0.000
1763453838.180,-994.629,-63.477,3.418,-1000.000,0.000
1763453838.184,-947.754,-63.477,-1.465,-933.594,0.000
1763453838.188,-1000.000,-75.195,-5.371,-1000.000,0.000
1763453838.192,-126.465,-57.129,-3.906,-290.527,0.000
1763453838.195,999.512,-33.691,6.348,999.512,0.000
1763453838.199,942.871,-36.621,5.859,965.820,0.000
1763453838.203,948.730,-36.621,2.441,937.012,0.000
1763453838.207,989.258,-37.109,4.883,992.188,0.000
1763453838.211,897.949,-45.410,-1.465,906.738,0.000
1763453838.215,999.512,-48.340,-4.883,999.512,0.000
1763453838.219,565.918,-50.781,-5.859,645.996,0.000
1763453838.223,-867.676,-77.148,-8.301,-764.160,0.000
1763453838.227,-1000.000,-76.660,-9.766,-1000.000,0.000
1763453838.231,-944.336,-52.734,-6.348,-941.895,0.000
1763453838.235,-1000.000,-62.988,-10.742,-1000.000,0.000
1763453838.238,-1000.000,-68.359,-13.672,-1000.000,0.000
1763453838.242,-1000.000,-57.129,-11.230,-1000.000,0.000
1763453838.246,-1000.000,-57.617,-15.137,-1000.000,0.000
1763453838.250,-945.312,-56.641,-13.672,-979.980,0.000
1763453838.254,-1000.000,-55.176,-12.207,-973.633,0.000
1763453838.258,-796.387,-60.547,-15.625,-1000.000,0.000
1763453838.262,585.449,-42.480,-16.602,96.191,0.000
1763453838.266,999.512,-32.227,-18.066,999.512,0.000
1763453838.270,908.203,-47.852,-21.973,918.945,0.000
1763453838.274,979.980,-41.992,-18.555,963.867,0.000
1763453838.277,969.727,-36.133,-16.113,971.680,0.000
1763453838.281,983.887,-52.246,-19.531,980.957,0.000
1763453838.285,907.715,-57.617,-19.043,925.781,0.000
1763453838.289,999.512,-58.594,-16.602,999.512,0.000
1763453838.293,718.750,-61.523,-15.137,891.602,0.000
1763453838.297,-701.172,-71.777,-21.973,-452.637,0.000
1763453838.301,-1000.000,-75.195,-26.855,-1000.000,0.000
1763453838.305,-937.500,-67.383,-28.809,-936.523,0.000
1763453838.309,-1000.000,-64.941,-24.902,-1000.000,0.000
1763453838.313,-1000.000,-60.547,-20.996,-1000.000,0.000
1763453838.317,-992.676,-53.711,-17.578,-998.535,0.000
1763453838.320,-951.172,-40.527,-11.719,-941.406,0.000
1763453838.324,-1000.000,-47.852,-14.648,-1000.000,0.000
1763453838.328,-88.379,-41.992,-20.508,-177.734,0.000
1763453838.332,999.512,-23.438,-24.414,999.512,0.000
1763453838.336,937.500,-29.297,-29.785,948.242,0.000
1763453838.340,951.172,-31.250,-32.227,946.289,0.000
1763453838.344,973.633,-32.227,-31.738,976.074,0.000
1763453838.348,969.727,-35.156,-28.809,970.215,0.000
1763453838.352,969.727,-35.645,-32.227,970.215,0.000
1763453838.356,969.727,-34.668,-24.414,970.215,0.000
1763453838.359,978.027,-28.320,-22.461,982.422,0.000
1763453838.363,898.926,-25.391,-28.320,897.949,0.000
1763453838.367,999.512,-17.578,-20.020,999.512,0.000
1763453838.371,354.492,-28.320,-19.531,475.098,0.000
1763453838.375,-1000.000,-60.547,-26.367,-935.059,0.000
1763453838.379,-1000.000,-56.641,-27.832,-1000.000,0.000
1763453838.383,-959.473,-45.410,-18.066,-950.195,0.000
1763453838.387,-1000.000,-52.734,-11.719,-1000.000,0.000
1763453838.391,-1000.000,-51.270,-15.137,-1000.000,0.000
1763453838.395,-975.586,-37.598,-14.648,-1000.000,0.000
1763453838.399,-985.840,-32.227,-10.254,-938.965,0.000
1763453838.402,-1000.000,-42.969,-6.348,-1000.000,0.000
1763453838.406,153.809,-36.133,-9.277,-200.684,0.000
1763453838.410,999.512,-24.902,-13.672,999.512,0.000
1763453838.414,918.457,-32.227,-12.695,951.172,0.000
1763453838.418,964.844,-33.691,-16.113,944.336,0.000
1763453838.422,978.516,-40.039,-17.578,984.863,0.000
1763453838.426,899.414,-38.086,-12.695,899.902,0.000
1763453838.430,999.512,-35.156,-14.160,999.512,0.000
1763453838.434,325.684,-43.945,-17.578,354.004,0.000
1763453838.438,-1000.000,-64.453,-16.602,-1000.000,0.000
1763453838.442,-1000.000,-61.035,-19.043,-1000.000,0.000
1763453838.445,-961.914,-50.781,-20.996,-959.473,0.000
1763453838.449,-1000.000,-43.945,-20.508,-1000.000,0.000
1763453838.453,-1000.000,-36.621,-20.996,-1000.000,0.000
1763453838.457,-1000.000,-33.691,-20.996,-1000.000,0.000
1763453838.461,-993.652,-34.668,-24.902,-1000.000,0.000
1763453838.465,-950.195,-36.621,-28.809,-930.664,0.000
1763453838.469,-1000.000,-46.387,-25.391,-1000.000,0.000
1763453838.473,-106.445,-33.691,-21.484,-370.605,0.000
1763453838.477,999.512,-5.859,-20.020,979.004,0.000
1763453838.480,940.430,-4.395,-16.113,980.469,0.000
1763453838.484,950.195,-13.672,-12.695,930.664,0.000
1763453838.488,975.586,-13.184,-11.719,983.398,0.000
1763453838.492,964.355,-11.230,-10.742,960.449,0.000
1763453838.496,915.527,-17.090,-9.766,928.711,0.000
1763453838.500,999.512,-15.625,-5.371,999.512,0.000
1763453838.504,93.262,-35.156,-7.324,35.156,0.000
1763453838.508,-1000.000,-50.293,-11.719,-1000.000,0.000
1763453838.512,-971.191,-37.109,-15.137,-971.680,0.000
1763453838.516,-979.980,-35.156,-15.137,-981.445,0.000
1763453838.520,-1000.000,-37.109,-14.648,-1000.000,0.000
1763453838.523,-1000.000,-28.320,-11.719,-1000.000,0.000
1763453838.527,-1000.000,-21.973,-8.789,-1000.000,0.000
1763453838.531,-999.512,-24.414,-14.648,-1000.000,0.000
1763453838.535,-939.941,-27.344,-13.672,-932.129,0.000
1763453838.539,-1000.000,-37.598,-13.672,-1000.000,0.000
1763453838.543,-195.312,-24.414,-14.160,-314.941,0.000
1763453838.547,999.512,5.371,-10.742,999.512,0.000
1763453838.551,950.195,-8.301,-10.254,970.215,0.000
1763453838.555,944.336,-15.625,-12.695,935.059,0.000
1763453838.559,976.074,-8.301,-14.160,979.492,0.000
1763453838.563,982.422,-21.973,-20.996,983.887,0.000
1763453838.566,898.438,-26.855,-22.461,911.621,0.000
1763453838.570,999.512,-12.695,-23.438,999.512,0.000
1763453838.574,506.348,-18.066,-27.832,750.977,0.000
1763453838.578,-907.227,-43.945,-27.832,-656.250,0.000
1763453838.582,-1000.000,-47.363,-23.926,-1000.000,0.000
1763453838.586,-948.242,-37.598,-22.949,-937.500,0.000
1763453838.590,-1000.000,-30.273,-24.902,-1000.000,0.000
1763453838.594,-1000.000,-22.949,-21.973,-1000.000,0.000
1763453838.598,-1000.000,-22.949,-19.043,-1000.000,0.000
1763453838.602,-933.594,-17.090,-12.207,-944.824,0.000
1763453838.605,-1000.000,-15.137,-9.277,-1000.000,0.000
1763453838.609,-687.012,-24.414,-8.301,-802.246,0.000
1763453838.613,746.582,-14.160,-10.254,589.844,0.000
1763453838.617,999.512,-0.977,-5.859,999.512,0.000
1763453838.621,908.691,-3.906,-4.395,907.227,0.000
1763453838.625,983.887,-17.090,-7.324,981.445,0.000
1763453838.629,976.562,-14.648,-7.812,972.168,0.000
1763453838.633,939.453,-14.160,-7.812,961.426,0.000
1763453838.637,966.309,-21.973,-7.324,922.852,0.000
1763453838.641,982.910,-17.578,-10.254,999.512,0.000
1763453838.645,-264.648,-39.062,-15.625,46.387,0.000
1763453838.648,-1000.000,-43.945,-15.137,-1000.000,0.000
1763453838.652,-943.359,-22.949,-16.113,-966.797,0.000
1763453838.656,-1000.000,-35.645,-18.066,-982.910,0.000
1763453838.660,-1000.000,-39.551,-20.508,-1000.000,0.000
1763453838.664,-1000.000,-34.668,-22.461,-1000.000,0.000
1763453838.668,-1000.000,-25.391,-21.484,-1000.000,0.000
1763453838.672,-1000.000,-20.508,-27.344,-1000.000,0.000
1763453838.676,-939.453,-20.996,-28.809,-933.594,0.000
1763453838.680,-1000.000,-25.391,-21.484,-1000.000,0.000
1763453838.684,-199.707,-16.602,-17.090,-283.691,0.000
1763453838.687,999.512,7.812,-17.578,999.512,0.000
1763453838.691,950.684,1.953,-25.391,964.844,0.000
1763453838.695,943.848,0.488,-20.996,937.500,0.000
1763453838.699,977.051,0.488,-18.555,979.492,0.000
1763453838.703,965.332,-18.066,-21.484,967.285,0.000
1763453838.707,914.062,-32.227,-15.625,913.574,0.000
1763453838.711,999.512,-32.715,-16.113,999.512,0.000
1763453838.715,108.887,-47.363,-14.160,134.277,0.000
1763453838.719,-1000.000,-63.477,-13.184,-1000.000,0.000
1763453838.723,-973.145,-53.711,-16.113,-977.539,0.000
1763453838.727,-979.004,-46.387,-12.695,-977.051,0.000
1763453838.730,-1000.000,-43.457,-7.812,-1000.000,0.000
1763453838.734,-988.770,-35.156,-12.207,-998.047,0.000
1763453838.738,-957.520,-30.762,-16.113,-942.383,0.000
1763453838.742,-1000.000,-28.809,-13.672,-1000.000,0.000
1763453838.746,-30.273,-6.836,-14.160,-167.969,0.000
1763453838.750,999.512,1.953,-15.137,999.512,0.000
1763453838.754,930.176,-13.672,-14.648,946.777,0.000
1763453838.758,955.566,-14.648,-7.812,946.777,0.000
1763453838.762,972.656,-14.160,-2.441,976.074,0.000
1763453838.765,977.051,-20.508,-4.395,975.586,0.000
1763453838.770,938.965,-26.367,-7.812,945.801,0.000
1763453838.773,963.867,-24.414,-12.695,954.590,0.000
1763453838.777,999.512,-15.625,-12.207,999.512,0.000
1763453838.781,-264.648,-35.645,-10.254,-184.082,0.000
1763453838.785,-1000.000,-53.711,-14.160,-1000.000,0.000
1763453838.789,-939.453,-35.645,-15.625,-948.242,0.000
1763453838.793,-1000.000,-34.668,-15.625,-1000.000,0.000
1763453838.797,-933.594,-37.598,-12.207,-931.641,0.000
1763453838.801,-1000.000,-28.320,-11.719,-1000.000,0.000
1763453838.805,-292.969,-15.137,-19.531,-362.793,0.000
1763453838.808,999.512,5.859,-14.648,984.375,0.000
1763453838.812,965.332,9.277,-7.812,979.004,0.000
1763453838.816,936.523,-2.930,-7.812,931.152,0.000
1763453838.820,978.516,-4.395,-4.395,980.957,0.000
1763453838.824,972.656,-7.324,-10.742,970.703,0.000
1763453838.828,957.031,-16.602,-18.066,968.262,0.000
1763453838.832,929.199,-14.648,-17.578,911.133,0.000
1763453838.836,999.512,-3.418,-12.695,999.512,0.000
1763453838.840,-8.789,-19.043,-12.207,147.461,0.000
1763453838.844,-1000.000,-40.039,-13.672,-1000.000,0.000
1763453838.848,-961.914,-35.645,-6.348,-978.516,0.000
1763453838.851,-986.328,-39.551,-16.113,-976.074,0.000
1763453838.855,-1000.000,-29.297,-27.344,-1000.000,0.000
1763453838.859,-1000.000,-26.367,-24.902,-1000.000,0.000
1763453838.863,-1000.000,-38.086,0.000,-1000.000,0.000
1763453838.867,-997.070,-33.203,0.000,-1000.000,0.000
1763453838.871,-943.359,-26.855,0.000,-935.547,0.000
1763453838.875,-1000.000,-31.738,0.000,-1000.000,0.000
1763453838.879,-161.621,-11.719,0.000,-246.094,0.000
1763453838.883,999.512,19.531,0.000,999.512,0.000
1763453838.887,946.289,13.672,0.000,958.496,0.000
1763453838.891,946.289,-5.371,0.000,940.918,0.000
1763453838.894,975.098,-12.207,0.000,977.539,0.000
1763453838.898,969.727,-14.648,0.000,970.215,0.000
1763453838.902,983.398,-13.184,0.000,980.957,0.000
1763453838.906,907.227,-15.625,0.000,926.270,0.000
1763453838.910,999.512,-16.602,-16.602,999.023,0.000
1763453838.914,696.777,-15.137,-9.277,896.484,0.000
1763453838.918,-720.703,-35.645,-20.020,-447.754,0.000
1763453838.922,-1000.000,-41.016,-21.484,-1000.000,0.000
1763453838.926,-938.965,-33.203,-17.090,-936.523,0.000
1763453838.930,-1000.000,-30.273,-14.648,-1000.000,0.000
1763453838.934,-1000.000,-25.879,-12.207,-1000.000,0.000
1763453838.937,-1000.000,-26.367,-17.578,-1000.000,0.000
1763453838.941,-1000.000,-29.297,-22.949,-1000.000,0.000
1763453838.945,-1000.000,-25.391,-16.113,-1000.000,0.000
1763453838.949,-965.820,-22.461,-13.672,-985.352,0.000
1763453838.953,-1000.000,-28.809,-24.414,-963.379,0.000
1763453838.957,-994.141,-31.738,-23.438,-1000.000,0.000
1763453838.961,289.551,-11.230,-18.555,20.996,0.000
1763453838.965,999.512,1.953,-20.996,999.512,0.000
1763453838.969,909.180,-7.324,-22.461,925.293,0.000
1763453838.973,972.168,-9.277,-18.066,959.473,0.000
1763453838.976,976.562,-3.906,-10.742,975.586,0.000
1763453838.980,941.406,0.000,-7.812,957.520,0.000
1763453838.984,959.961,-10.254,-11.719,929.688,0.000
1763453838.988,999.512,-19.531,-12.695,999.512,0.000
1763453838.992,-233.398,-34.668,-10.742,-13.672,0.000
1763453838.996,-1000.000,-37.109,-9.277,-1000.000,0.000
1763453839.000,-943.359,-31.250,-13.672,-960.449,0.000
1763453839.004,-999.023,-26.367,-16.602,-986.816,0.000
1763453839.008,-1000.000,-21.484,-17.090,-1000.000,0.000
1763453839.012,-1000.000,-25.391,-19.043,-1000.000,0.000
1763453839.016,-929.199,-24.414,-19.531,-942.871,0.000
1763453839.019,-1000.000,-24.902,-15.625,-1000.000,0.000
1763453839.023,-581.543,-14.648,-10.742,-802.734,0.000
1763453839.027,844.238,12.695,-6.348,602.051,0.000
1763453839.031,999.512,6.836,-10.742,999.512,0.000
1763453839.035,914.551,-17.578,-12.207,906.250,0.000
1763453839.039,984.375,-25.879,-12.695,982.422,0.000
1763453839.043,969.727,-21.973,-14.648,970.215,0.000
1763453839.047,969.727,-19.043,-11.230,970.215,0.000
1763453839.051,977.539,-22.949,-16.113,981.445,0.000
1763453839.055,898.926,-20.020,-19.043,897.949,0.000
1763453839.058,999.512,-9.766,-17.578,999.512,0.000
1763453839.062,344.238,-17.578,-19.043,434.570,0.000
1763453839.066,-1000.000,-42.969,-20.508,-962.402,0.000
1763453839.070,-1000.000,-35.645,-20.996,-1000.000,0.000
1763453839.074,-960.449,-29.785,-26.367,-953.125,0.000
1763453839.078,-1000.000,-40.527,-27.832,-1000.000,0.000
1763453839.082,-1000.000,-35.156,-22.949,-1000.000,0.000
1763453839.086,-1000.000,-25.879,-22.949,-1000.000,0.000
1763453839.090,-936.523,-23.438,-24.902,-928.223,0.000
1763453839.094,-1000.000,-30.762,-23.926,-1000.000,0.000
1763453839.097,0.000,-20.996,-22.461,-441.895,0.000
1763453839.101,0.000,0.977,-23.438,945.312,0.000
1763453839.105,0.000,-6.836,-26.367,993.652,0.000
1763453839.109,0.000,-16.113,-28.320,924.805,0.000
1763453839.113,0.000,-19.043,-22.949,982.910,0.000
1763453839.117,0.000,-10.742,-19.531,970.215,0.000
1763453839.121,0.000,-15.625,-27.344,978.516,0.000
1763453839.125,0.000,-35.156,-29.297,935.059,0.000
1763453839.129,0.000,-38.086,-27.344,975.098,0.000
1763453839.133,0.000,-33.691,-28.320,969.727,0.000
1763453839.136,0.000,-48.828,-27.832,-321.777,0.000
1763453839.140,0.000,-47.363,-24.414,-1000.000,0.000
1763453839.144,-937.012,-32.227,-23.926,-938.477,0.000
1763453839.148,-1000.000,-35.645,-22.461,-1000.000,0.000
1763453839.152,-1000.000,-28.320,-16.602,-1000.000,0.000
1763453839.156,-930.176,-22.949,-20.020,-942.871,0.000
1763453839.160,-1000.000,-27.832,-22.949,-1000.000,0.000
1763453839.164,-610.840,-14.160,-17.090,-795.898,0.000
1763453839.168,821.289,4.883,-14.648,607.422,0.000
1763453839.172,999.512,-3.906,-16.602,999.512,0.000
1763453839.176,913.086,-9.766,-19.043,906.738,0.000
1763453839.179,984.375,-8.301,-16.113,982.422,0.000
1763453839.183,979.492,-12.695,-11.230,975.586,0.000
1763453839.187,927.734,-18.066,-12.207,946.289,0.000
1763453839.191,992.676,-21.973,-15.625,954.102,0.000
1763453839.195,910.156,-14.648,-19.531,999.512,0.000
1763453839.199,-418.457,-23.438,-18.066,-177.734,0.000
1763453839.203,-1000.000,-35.645,-16.113,-1000.000,0.000
1763453839.207,-937.012,-41.504,-20.020,-949.219,0.000
1763453839.211,-1000.000,-39.062,-17.578,-995.605,0.000
1763453839.215,-1000.000,-28.809,-20.020,-1000.000,0.000
1763453839.219,-1000.000,-34.668,-22.461,-1000.000,0.000
1763453839.222,-1000.000,-35.645,-21.973,-1000.000,0.000
1763453839.226,-1000.000,-31.738,-23.438,-1000.000,0.000
1763453839.230,-933.594,-27.832,-23.926,-927.734,0.000
1763453839.234,-1000.000,-22.949,-16.602,-1000.000,0.000
1763453839.238,-288.574,-10.254,-12.695,-454.590,0.000
1763453839.242,999.512,9.277,-11.719,938.477,0.000
1763453839.246,964.844,6.348,-8.301,996.094,0.000
1763453839.250,937.012,-2.441,-11.719,923.828,0.000
1763453839.254,978.516,-13.672,-17.090,983.398,0.000
1763453839.258,973.145,-9.766,-19.043,970.703,0.000
1763453839.262,953.613,-5.859,-18.066,970.215,0.000
1763453839.265,938.965,-20.996,-21.484,908.691,0.000
1763453839.269,999.512,-24.414,-21.484,999.512,0.000
1763453839.273,-60.059,-36.621,-18.555,174.805,0.000
1763453839.277,-1000.000,-51.758,-16.113,-1000.000,0.000
1763453839.281,-961.914,-41.992,-18.555,-981.934,0.000
1763453839.285,-987.793,-31.738,-28.809,-974.121,0.000
1763453839.289,-1000.000,-29.785,-30.273,-1000.000,0.000
1763453839.293,-1000.000,-32.715,-30.762,-1000.000,0.000
1763453839.297,-935.059,-31.738,-31.738,-930.664,0.000
1763453839.301,-1000.000,-31.738,-27.344,-1000.000,0.000
1763453839.305,-258.301,-4.883,-20.508,-349.121,0.000
1763453839.308,999.512,16.602,-16.113,990.723,0.000
1763453839.312,959.473,0.977,-17.578,976.074,0.000
1763453839.316,939.453,-13.184,-21.484,932.617,0.000
1763453839.320,977.539,-25.391,-20.996,980.469,0.000
1763453839.324,974.609,-21.973,-19.043,973.145,0.000
1763453839.328,947.754,-18.555,-21.484,958.008,0.000
1763453839.332,945.801,-22.949,-22.461,929.688,0.000
1763453839.336,999.512,-26.367,-17.090,999.512,0.000
1763453839.340,-149.414,-36.621,-17.090,-8.301,0.000
1763453839.344,-1000.000,-40.527,-30.762,-1000.000,0.000
1763453839.348,-946.777,-33.691,-37.109,-961.426,0.000
1763453839.351,-995.605,-31.738,-32.715,-986.328,0.000
1763453839.355,-1000.000,-21.484,-31.738,-1000.000,0.000
1763453839.359,-999.023,-23.926,-29.785,-1000.000,0.000
1763453839.363,-940.430,-30.273,-32.715,-937.500,0.000
1763453839.367,-1000.000,-28.809,-32.715,-1000.000,0.000
1763453839.371,-189.941,-4.395,-26.855,-217.285,0.000
1763453839.375,999.512,7.324,-29.297,999.512,0.000
1763453839.379,949.219,-9.766,-33.691,953.613,0.000
1763453839.383,944.336,-14.160,-28.320,943.359,0.000
1763453839.387,975.586,-16.602,-29.297,977.051,0.000
1763453839.390,973.145,-20.020,-32.715,972.656,0.000
1763453839.394,953.613,-21.973,-29.297,959.473,0.000
1763453839.398,933.594,-11.719,-21.973,928.223,0.000
1763453839.402,999.512,-7.812,-20.508,999.512,0.000
1763453839.406,-63.477,-35.156,-20.020,16.113,0.000
1763453839.410,-1000.000,-45.410,-19.043,-1000.000,0.000
1763453839.414,-953.613,-33.203,-22.949,-965.820,0.000
1763453839.418,-990.723,-32.227,-29.785,-984.375,0.000
1763453839.422,-1000.000,-34.668,-35.156,-1000.000,0.000
1763453839.426,-1000.000,-32.227,-34.668,-1000.000,0.000
1763453839.430,-1000.000,-22.461,-28.809,-1000.000,0.000
1763453839.433,-932.129,-24.414,-25.879,-928.223,0.000
1763453839.437,-1000.000,-34.668,-28.320,-1000.000,0.000
1763453839.441,-320.312,-24.414,-28.809,-542.969,0.000
1763453839.445,999.512,11.719,-25.391,878.906,0.000
1763453839.449,970.215,4.395,-26.367,999.512,0.000
1763453839.453,934.082,-17.090,-25.879,917.480,0.000
1763453839.457,979.004,-15.137,-20.996,984.375,0.000
1763453839.461,969.727,-13.672,-19.043,970.215,0.000
1763453839.465,979.004,-17.090,-20.996,981.934,0.000
1763453839.468,898.438,-20.020,-20.020,897.949,0.000
1763453839.472,999.512,-15.625,-14.160,999.512,0.000
1763453839.476,369.141,-18.555,-13.672,458.984,0.000
1763453839.480,-999.023,-38.086,-21.973,-946.777,0.000
1763453839.484,-1000.000,-43.457,-24.414,-1000.000,0.000
1763453839.488,-958.496,-41.992,-23.438,-951.172,0.000
1763453839.492,-1000.000,-40.039,-22.949,-1000.000,0.000
1763453839.496,-1000.000,-31.738,-21.973,-1000.000,0.000
1763453839.500,-1000.000,-33.691,-28.320,-1000.000,0.000
1763453839.504,-928.223,-38.086,-27.832,-940.918,0.000
1763453839.508,-1000.000,-39.551,-28.320,-1000.000,0.000
1763453839.511,-475.098,-35.156,-29.297,-771.973,0.000
1763453839.515,922.852,-17.578,-27.832,638.672,0.000
1763453839.519,999.512,-9.277,-26.855,999.512,0.000
1763453839.523,921.875,-14.648,-23.438,907.227,0.000
1763453839.527,982.910,-23.926,-26.855,982.910,0.000
1763453839.531,969.727,-30.762,-33.203,970.215,0.000
1763453839.535,980.469,-35.156,-31.738,976.562,0.000
1763453839.539,924.316,-28.320,-25.879,941.895,0.000
1763453839.543,999.512,-19.043,-21.484,961.426,0.000
1763453839.547,880.371,-21.973,-23.438,999.512,0.000
1763453839.550,-467.773,-45.898,-23.926,-234.863,0.000
1763453839.554,-1000.000,-54.688,-21.484,-1000.000,0.000
1763453839.558,-936.523,-38.574,-18.555,-943.359,0.000
1763453839.562,-1000.000,-31.738,-14.160,-999.023,0.000
1763453839.566,-1000.000,-23.438,-16.113,-1000.000,0.000
1763453839.570,-1000.000,-20.996,-24.414,-1000.000,0.000
1763453839.574,-993.652,-24.414,-27.344,-999.023,0.000
1763453839.578,-948.730,-16.113,-26.367,-940.430,0.000
1763453839.582,-1000.000,-18.066,-28.320,-1000.000,0.000
1763453839.586,-101.562,-3.418,-23.438,-187.988,0.000
1763453839.590,999.512,5.371,-20.508,999.512,0.000
1763453839.593,937.988,-12.695,-17.578,949.707,0.000
1763453839.597,951.172,-10.742,-14.160,945.312,0.000
1763453839.601,974.121,-18.555,-21.973,976.562,0.000
1763453839.605,971.191,-28.809,-27.344,976.074,0.000
1763453839.609,905.762,-25.391,-24.902,901.855,0.000
1763453839.613,999.512,-21.973,-20.996,999.512,0.000
1763453839.617,204.590,-30.273,-16.113,294.434,0.000
1763453839.621,-1000.000,-43.945,-7.324,-1000.000,0.000
1763453839.625,-986.328,-39.062,-18.066,-1000.000,0.000
1763453839.629,-971.680,-29.785,-32.227,-964.355,0.000
1763453839.633,-1000.000,-23.438,-28.320,-1000.000,0.000
1763453839.636,-1000.000,-23.438,-24.902,-1000.000,0.000
1763453839.640,-1000.000,-31.738,-20.996,-1000.000,0.000
1763453839.644,-966.797,-35.156,-22.461,-996.094,0.000
1763453839.648,-1000.000,-26.855,-21.973,-944.824,0.000
1763453839.652,-958.496,-23.926,-20.996,-1000.000,0.000
1763453839.656,293.457,-5.371,-18.555,-142.578,0.000
1763453839.660,0.000,10.254,-16.602,999.512,0.000
1763453839.664,0.000,-6.348,-15.137,943.848,0.000
1763453839.668,0.000,-14.160,-17.090,948.730,0.000
1763453839.672,0.000,-14.648,-22.949,975.098,0.000
1763453839.676,0.000,-14.160,-23.926,970.703,0.000
1763453839.679,0.000,-7.812,-18.066,970.215,0.000
1763453839.683,0.000,-7.324,-20.020,908.691,0.000
1763453839.687,0.000,-15.137,-24.414,999.512,0.000
1763453839.691,0.000,-37.598,-24.414,175.781,0.000
1763453839.695,0.000,-53.223,-28.809,-1000.000,0.000
1763453839.699,0.000,-42.480,-25.879,-981.934,0.000
1763453839.703,0.000,-28.320,-20.996,-974.121,0.000
1763453839.707,-1000.000,-22.461,-21.973,-1000.000,0.000
1763453839.711,-1000.000,-26.855,-22.949,-1000.000,0.000
1763453839.715,-977.051,-20.996,-23.926,-992.188,0.000
1763453839.718,-979.004,-21.484,-25.391,-950.684,0.000
1763453839.722,-1000.000,-26.367,-20.996,-1000.000,0.000
1763453839.726,132.324,-0.488,-13.184,-84.473,0.000
1763453839.730,999.512,12.695,-10.254,999.512,0.000
1763453839.734,916.016,-6.348,-12.207,936.523,0.000
1763453839.738,965.332,-8.301,-15.137,952.637,0.000
1763453839.742,980.957,-9.766,-14.160,978.516,0.000
1763453839.746,926.758,-16.113,-16.113,950.684,0.000
1763453839.750,996.582,-14.648,-17.090,941.895,0.000
1763453839.754,893.066,-13.672,-15.625,999.512,0.000
1763453839.758,-437.500,-30.273,-14.648,-109.863,0.000
1763453839.761,-1000.000,-41.016,-12.695,-1000.000,0.000
1763453839.765,-937.988,-28.809,-15.625,-950.684,0.000
1763453839.769,-1000.000,-26.367,-16.602,-993.164,0.000
1763453839.773,-1000.000,-23.438,-17.090,-1000.000,0.000
1763453839.777,-930.176,-20.020,-16.602,-928.223,0.000
1763453839.781,-1000.000,-23.926,-14.648,-1000.000,0.000
1763453839.785,-367.676,-7.812,-5.859,-454.590,0.000
1763453839.789,982.910,14.160,-5.371,937.012,0.000
1763453839.793,978.516,4.395,-14.648,996.582,0.000
1763453839.797,930.176,-5.371,-17.090,923.828,0.000
1763453839.800,0.000,-9.277,-17.090,983.398,0.000
1763453839.804,0.000,-13.184,-18.555,970.215,0.000
1763453839.808,0.000,-19.043,-20.996,983.398,0.000
1763453839.812,0.000,-20.508,-22.949,914.062,0.000
1763453839.816,0.000,-17.578,-22.949,999.512,0.000
1763453839.820,0.000,-6.836,-17.578,781.250,0.000
1763453839.824,0.000,-27.344,-22.949,-615.723,0.000
1763453839.828,0.000,-45.410,-30.762,-1000.000,0.000
1763453839.832,0.000,-33.203,-23.926,-937.012,0.000
1763453839.836,0.000,-28.320,-21.484,-1000.000,0.000
1763453839.839,0.000,-27.344,-24.902,-1000.000,0.000
1763453839.843,0.000,-27.344,-26.367,-1000.000,0.000
1763453839.847,-1000.000,-24.902,-21.973,-1000.000,0.000
1763453839.851,-934.570,-20.996,-21.484,-938.477,0.000
1763453839.855,-1000.000,-24.902,-23.438,-1000.000,0.000
1763453839.859,-282.227,-20.020,-24.414,-728.516,0.000
1763453839.863,999.512,-3.906,-32.227,683.105,0.000
1763453839.867,964.355,-3.906,-33.203,999.512,0.000
1763453839.871,937.500,-19.043,-26.855,909.180,0.000
1763453839.875,978.027,-29.297,-26.855,982.910,0.000
1763453839.878,984.375,-28.320,-26.367,982.422,0.000
1763453839.882,903.809,-25.391,-21.484,911.133,0.000
1763453839.886,999.512,-16.602,-14.648,999.512,0.000
1763453839.890,678.711,-20.996,-13.672,706.543,0.000
1763453839.894,-755.859,-40.039,-16.113,-689.453,0.000
1763453839.898,-1000.000,-39.062,-16.113,-1000.000,0.000
1763453839.902,-938.477,-29.785,-15.625,-939.941,0.000
1763453839.906,-1000.000,-32.715,-16.602,-1000.000,0.000
1763453839.910,-1000.000,-33.691,-19.531,-1000.000,0.000
1763453839.914,-996.094,-20.996,-18.555,-1000.000,0.000
1763453839.918,-945.312,-14.648,-18.066,-937.988,0.000
1763453839.921,-1000.000,-26.367,-19.531,-1000.000,0.000
1763453839.925,-142.090,-14.648,-21.973,-215.332,0.000
1763453839.929,999.512,3.418,-25.879,999.512,0.000
1763453839.933,943.359,-2.441,-21.973,953.613,0.000
1763453839.937,947.754,-7.812,-15.625,943.359,0.000
1763453839.941,974.609,-3.906,-13.184,977.051,0.000
1763453839.945,969.727,-4.883,-12.207,970.215,0.000
1763453839.949,969.727,-15.625,-15.137,970.215,0.000
1763453839.953,971.680,-22.461,-19.043,970.703,0.000
1763453839.957,962.402,-21.484,-23.438,970.703,0.000
1763453839.961,920.410,-14.160,-20.508,908.203,0.000
1763453839.964,999.512,-10.742,-15.625,999.512,0.000
1763453839.968,70.312,-35.645,-23.926,181.641,0.000
1763453839.972,-1000.000,-59.082,-27.832,-1000.000,0.000
1763453839.976,-971.191,-48.828,-21.484,-982.910,0.000
1763453839.980,-980.957,-34.668,-18.555,-973.633,0.000
1763453839.984,-1000.000,-31.250,-19.043,-1000.000,0.000
1763453839.988,-1000.000,-29.297,-17.090,-1000.000,0.000
1763453839.992,-1000.000,-24.902,-13.672,-1000.000,0.000
1763453839.996,-957.031,-19.043,-11.719,-968.750,0.000
1763453840.000,-1000.000,-14.160,-11.230,-997.559,0.000
1763453840.003,-946.289,-24.414,-14.648,-1000.000,0.000
1763453840.007,400.391,-1.953,-14.160,246.582,0.000
1763453840.011,999.512,14.648,-11.230,999.512,0.000
1763453840.015,904.297,-7.812,-8.789,909.668,0.000
1763453840.019,977.051,-15.137,-13.672,971.680,0.000
1763453840.023,976.074,-13.184,-12.695,971.680,0.000
1763453840.027,941.895,-14.160,-8.301,967.285,0.000
1763453840.031,962.891,-10.742,-7.324,913.086,0.000
1763453840.035,980.957,-8.301,-7.324,999.512,0.000
1763453840.039,-229.980,-22.949,-11.719,128.418,0.000
1763453840.043,-1000.000,-32.715,-5.859,-1000.000,0.000
1763453840.046,-948.730,-22.949,-3.906,-976.074,0.000
1763453840.050,-997.070,-17.090,-7.812,-977.539,0.000
1763453840.054,-1000.000,-11.230,-11.719,-1000.000,0.000
1763453840.058,-1000.000,-6.836,-10.742,-1000.000,0.000
1763453840.062,-1000.000,-10.742,-12.695,-1000.000,0.000
1763453840.066,-1000.000,-18.555,-18.555,-1000.000,0.000
1763453840.070,-927.734,-25.879,-16.113,-937.012,0.000
1763453840.074,-1000.000,-25.879,-13.672,-1000.000,0.000
1763453840.078,-482.422,-7.812,-19.043,-721.680,0.000
1763453840.082,922.363,15.625,-20.020,699.219,0.000
1763453840.086,999.512,12.207,-15.137,999.512,0.000
1763453840.089,920.898,4.395,-11.719,909.180,0.000
1763453840.093,982.910,3.906,-14.160,983.887,0.000
1763453840.097,969.727,-4.883,-14.160,970.215,0.000
1763453840.101,974.609,-3.906,-17.578,972.656,0.000
1763453840.105,946.777,1.465,-25.879,958.008,0.000
1763453840.109,946.777,-11.719,-28.320,927.734,0.000
1763453840.113,999.512,-9.277,-23.438,999.512,0.000
1763453840.117,-157.227,-26.855,-20.996,-5.371,0.000
1763453840.121,-1000.000,-47.852,-20.020,-1000.000,0.000
1763453840.124,-945.801,-28.320,-22.461,-959.961,0.000
1763453840.128,-996.094,-17.090,-16.113,-986.816,0.000
1763453840.132,-1000.000,-12.207,-5.859,-1000.000,0.000
1763453840.136,-1000.000,-20.020,-13.672,-1000.000,0.000
1763453840.140,-938.477,-24.902,-24.414,-955.566,0.000
1763453840.144,-1000.000,-24.902,-24.414,-1000.000,0.000
1763453840.148,-750.488,-15.625,-18.555,-922.852,0.000
1763453840.152,670.898,3.906,-20.020,425.781,0.000
1763453840.156,999.512,-2.441,-25.391,999.512,0.000
1763453840.160,906.738,-11.719,-21.484,905.762,0.000
1763453840.164,983.398,-16.113,-14.160,978.027,0.000
1763453840.167,969.727,-19.531,-15.137,970.215,0.000
1763453840.171,969.727,-10.254,-20.508,979.004,0.000
1763453840.175,0.000,-13.672,-22.949,899.414,0.000
1763453840.179,0.000,-17.090,-25.391,999.512,0.000
1763453840.183,0.000,-23.438,-26.855,369.629,0.000
1763453840.187,0.000,-47.363,-27.832,-996.582,0.000
1763453840.191,0.000,-43.457,-29.297,-1000.000,0.000
1763453840.195,0.000,-22.949,-23.438,-958.496,0.000
1763453840.199,0.000,-28.809,-23.926,-1000.000,0.000
1763453840.203,0.000,-41.016,-28.320,-1000.000,0.000
1763453840.206,0.000,-35.645,-20.508,-1000.000,0.000
1763453840.210,0.000,-28.809,-21.973,-996.094,0.000
1763453840.214,0.000,-24.414,-22.461,-944.824,0.000
1763453840.218,0.000,-25.391,-20.508,-1000.000,0.000
1763453840.222,231.445,-4.395,-25.391,-140.137,0.000
1763453840.226,999.512,16.113,-23.438,999.512,0.000
1763453840.230,914.551,5.859,-20.508,943.848,0.000
1763453840.234,968.262,-6.348,-19.531,948.730,0.000
1763453840.238,970.703,-13.184,-18.066,975.098,0.000
1763453840.242,969.727,-7.324,-16.602,970.215,0.000
1763453840.246,972.168,-9.277,-15.625,976.074,0.000
1763453840.249,904.297,-22.461,-18.066,901.855,0.000
1763453840.253,999.512,-14.160,-21.484,999.512,0.000
1763453840.257,229.004,-17.090,-22.461,290.039,0.000
1763453840.261,-1000.000,-41.992,-21.973,-1000.000,0.000
1763453840.265,-990.234,-39.062,-19.043,-1000.000,0.000
1763453840.269,-969.727,-24.414,-18.066,-964.844,0.000
1763453840.273,-1000.000,-22.949,-18.066,-1000.000,0.000
1763453840.277,-928.711,-24.414,-19.043,-938.965,0.000
1763453840.281,-1000.000,-30.273,-19.531,-1000.000,0.000
1763453840.285,-437.500,-19.043,-16.113,-748.047,0.000
1763453840.288,945.312,9.766,-18.066,666.992,0.000
1763453840.292,992.188,4.883,-23.438,999.512,0.000
1763453840.296,924.805,-10.254,-21.973,908.203,0.000
1763453840.300,981.934,-10.254,-18.555,983.398,0.000
1763453840.304,969.727,-9.277,-20.508,970.215,0.000
