timestamps,TP9,AF7,AF8,TP10,Right AUX
1763445347.117,45.410,-5.371,-13.672,12.207,0.000
1763445347.121,52.246,-10.254,-22.949,0.977,0.000
1763445347.125,34.668,-10.742,-25.391,-0.977,0.000
1763445347.128,-25.879,-6.836,-14.648,20.020,0.000
1763445347.132,-59.082,-12.695,-6.836,14.160,0.000
1763445347.136,4.395,-9.766,-8.789,-5.859,0.000
1763445347.140,47.852,-6.836,-7.324,7.812,0.000
1763445347.144,25.391,-6.836,-7.812,8.301,0.000
1763445347.148,-27.832,-2.441,-13.184,10.254,0.000
1763445347.152,-16.113,-1.953,-13.672,20.508,0.000
1763445347.156,49.805,0.977,-11.719,14.648,0.000
1763445347.160,36.133,2.441,-10.254,8.789,0.000
1763445347.164,-33.203,-7.324,-6.836,8.789,0.000
1763445347.168,9.766,-8.301,-10.742,12.207,0.000
1763445347.171,77.637,-4.883,-9.766,3.418,0.000
1763445347.175,34.180,-9.766,-3.418,8.301,0.000
1763445347.179,-22.949,-9.766,-4.395,14.648,0.000
1763445347.183,14.648,-2.930,-5.371,10.742,0.000
1763445347.187,36.133,-0.977,-10.254,14.160,0.000
1763445347.191,-6.836,-2.441,-10.742,12.695,0.000
1763445347.195,11.230,-6.836,-10.742,5.371,0.000
1763445347.199,5.859,-18.555,-8.789,4.395,0.000
1763445347.203,-72.266,-19.531,-9.277,8.789,0.000
1763445347.207,5.859,-11.719,-21.484,16.113,0.000
1763445347.211,94.238,-12.207,-18.555,4.883,0.000
1763445347.214,79.102,-8.301,-6.348,4.883,0.000
1763445347.218,36.621,-5.859,6.348,10.742,0.000
1763445347.222,-17.090,-9.766,7.812,9.766,0.000
1763445347.226,-31.250,-12.207,-3.418,12.695,0.000
1763445347.230,-33.691,-13.672,-8.789,8.301,0.000
1763445347.234,-26.367,-12.207,-13.672,5.859,0.000
1763445347.238,-3.906,-6.836,-18.066,6.836,0.000
1763445347.242,-9.766,-11.230,-19.531,-7.812,0.000
1763445347.246,32.227,-11.230,-21.973,-17.090,0.000
1763445347.250,78.125,-3.906,-20.508,7.812,0.000
1763445347.253,3.906,-5.371,-21.973,13.184,0.000
1763445347.257,-24.414,-7.812,-23.438,-12.207,0.000
1763445347.261,22.461,-1.465,-12.695,-14.648,0.000
1763445347.265,15.625,-3.418,-8.789,2.441,0.000
1763445347.269,24.902,-5.859,-16.602,0.977,0.000
1763445347.273,29.785,-4.883,-11.719,5.371,0.000
1763445347.277,-7.324,-6.348,-5.371,11.230,0.000
1763445347.281,-31.738,-5.371,-13.184,-0.488,0.000
1763445347.285,-37.598,-13.672,-23.438,-11.230,0.000
1763445347.289,-10.742,-24.902,-20.020,-13.672,0.000
1763445347.293,38.574,-17.090,-7.324,-2.930,0.000
1763445347.296,11.230,-11.230,-5.859,-12.695,0.000
1763445347.300,-21.973,-13.184,-15.625,-5.859,0.000
1763445347.304,28.320,-9.766,-20.996,6.836,0.000
1763445347.308,-6.836,-15.625,-14.160,-7.812,0.000
1763445347.312,-62.012,-16.113,-6.348,-0.977,0.000
1763445347.316,-1.953,-10.742,-4.395,-5.859,0.000
1763445347.320,17.090,-13.184,-8.789,-16.113,0.000
1763445347.324,-21.484,-11.230,-20.996,-10.254,0.000
1763445347.328,34.668,-7.324,-19.531,-3.418,0.000
1763445347.332,57.129,-14.160,-11.719,-13.184,0.000
1763445347.336,2.930,-17.090,-11.230,-17.090,0.000
1763445347.339,-22.949,-15.625,-4.395,-9.277,0.000
1763445347.343,-24.414,-8.789,-7.812,-0.977,0.000
1763445347.347,9.277,-6.348,-20.020,2.930,0.000
1763445347.351,0.000,-9.766,-26.855,-0.977,0.000
1763445347.355,0.000,-17.578,-17.090,-10.742,0.000
1763445347.359,0.000,-18.066,-8.789,-12.207,0.000
1763445347.363,0.000,-13.184,-8.789,9.766,0.000
1763445347.367,0.000,-10.742,-11.230,10.742,0.000
1763445347.371,0.000,-14.648,-14.160,-2.930,0.000
1763445347.375,0.000,-17.578,-17.578,2.930,0.000
1763445347.378,0.000,-19.043,-22.949,-3.906,0.000
1763445347.382,0.000,-14.160,-19.531,-4.395,0.000
1763445347.386,0.000,-9.766,-16.113,-1.465,0.000
1763445347.390,0.000,-10.254,-13.672,-0.977,0.000
1763445347.394,0.000,-9.277,-13.184,3.906,0.000
1763445347.398,9.766,-14.160,-18.555,-6.348,0.000
1763445347.402,3.418,-9.277,-20.996,-9.277,0.000
1763445347.406,-12.695,-15.625,-13.672,2.441,0.000
1763445347.410,-11.719,-28.320,-8.301,16.113,0.000
1763445347.414,-39.551,-14.648,-8.301,16.113,0.000
1763445347.418,-34.668,-7.812,-14.160,5.371,0.000
1763445347.421,4.395,-19.043,-17.090,-7.324,0.000
1763445347.425,25.391,-13.672,-10.742,-24.414,0.000
1763445347.429,12.695,-14.160,-11.719,-16.113,0.000
1763445347.433,3.418,-17.090,-16.113,-4.395,0.000
1763445347.437,7.812,-12.207,-12.695,-0.977,0.000
1763445347.441,-12.695,-17.578,-14.160,8.789,0.000
1763445347.445,-46.387,-13.672,-10.742,10.742,0.000
1763445347.449,-23.438,-1.465,-5.859,-0.488,0.000
1763445347.453,20.996,2.441,-12.207,-1.953,0.000
1763445347.457,2.930,0.977,-8.301,2.930,0.000
1763445347.461,14.648,3.418,4.395,6.836,0.000
1763445347.464,37.598,-2.930,6.348,22.461,0.000
1763445347.468,19.043,-9.766,3.418,22.461,0.000
1763445347.472,15.137,-12.695,-1.953,-10.742,0.000
1763445347.476,43.457,-15.625,0.488,-5.859,0.000
1763445347.480,38.086,-12.207,5.371,9.766,0.000
1763445347.484,-14.160,-4.883,-1.465,-3.906,0.000
1763445347.488,-8.301,-1.953,-2.441,-0.488,0.000
1763445347.492,-8.789,-5.859,-1.953,14.648,0.000
1763445347.496,-30.273,-8.789,-7.324,21.973,0.000
1763445347.500,-5.371,-13.184,-4.395,13.672,0.000
1763445347.504,-18.066,-13.184,2.441,6.836,0.000
1763445347.507,-9.766,-10.254,-9.277,0.000,0.000
1763445347.511,27.832,-8.301,-12.207,-1.465,0.000
1763445347.515,18.066,-6.836,0.488,5.859,0.000
1763445347.519,26.855,-17.578,0.488,12.695,0.000
1763445347.523,24.414,-12.207,-0.488,14.648,0.000
1763445347.527,6.348,1.465,-0.977,9.277,0.000
1763445347.531,4.883,-1.465,-9.277,-0.488,0.000
1763445347.535,-48.340,-4.395,-1.953,-2.441,0.000
1763445347.539,-82.031,0.488,1.465,-2.930,0.000
1763445347.543,-1.465,-3.906,-5.371,0.000,0.000
1763445347.547,34.668,-10.742,-6.348,9.766,0.000
1763445347.550,8.789,-4.883,-12.695,4.395,0.000
1763445347.554,11.230,-0.488,-16.113,-19.043,0.000
1763445347.558,-0.488,-4.883,-12.695,-26.367,0.000
1763445347.562,-6.348,-8.789,-16.602,-3.906,0.000
1763445347.566,-18.066,-8.301,-12.207,8.301,0.000
1763445347.570,-7.812,-4.395,0.977,2.441,0.000
1763445347.574,18.555,-11.719,6.348,7.324,0.000
1763445347.578,0.977,-17.578,-0.977,2.930,0.000
1763445347.582,-5.859,-15.625,-6.348,1.465,0.000
1763445347.586,6.348,-18.066,-3.418,-0.977,0.000
1763445347.589,3.906,-21.484,-2.441,-9.766,0.000
1763445347.593,-13.672,-16.602,-3.418,-3.906,0.000
1763445347.597,-33.691,-10.742,-12.695,-20.020,0.000
1763445347.601,-51.758,-5.371,-15.625,-29.297,0.000
1763445347.605,-32.715,-7.324,-11.230,-3.906,0.000
1763445347.609,-6.348,-7.812,-9.277,12.207,0.000
1763445347.613,1.953,-1.953,-13.184,-3.418,0.000
1763445347.617,26.855,-2.930,-24.414,-14.160,0.000
1763445347.621,4.883,-14.160,-27.832,-8.789,0.000
1763445347.625,-25.391,-21.973,-13.184,-13.672,0.000
1763445347.629,-6.348,-14.160,-6.348,-12.695,0.000
1763445347.632,-16.602,-12.695,-18.066,-0.977,0.000
1763445347.636,-25.391,-18.066,-22.949,-6.348,0.000
1763445347.640,-24.414,-16.602,-7.812,0.488,0.000
1763445347.644,-13.672,-17.090,-0.977,-8.301,0.000
1763445347.648,-19.531,-21.973,-9.277,-16.113,0.000
1763445347.652,-12.207,-21.484,-7.324,-0.488,0.000
1763445347.656,0.977,-15.137,-10.254,-7.812,0.000
1763445347.660,-43.457,-11.230,-21.973,-14.648,0.000
1763445347.664,-63.965,-15.625,-28.320,-10.742,0.000
1763445347.668,17.578,-17.578,-20.508,2.441,0.000
1763445347.671,58.105,-19.043,-13.184,-12.207,0.000
1763445347.675,35.645,-19.531,-14.648,-12.695,0.000
1763445347.679,1.465,-14.160,-29.785,5.371,0.000
1763445347.683,-10.742,-16.602,-27.832,-7.812,0.000
1763445347.687,-21.973,-19.043,0.977,-12.207,0.000
1763445347.691,-66.406,-18.555,12.207,-15.625,0.000
1763445347.695,-33.691,-20.996,5.371,-20.020,0.000
1763445347.699,11.230,-21.973,-1.465,-22.461,0.000
1763445347.703,32.227,-19.531,0.977,-16.602,0.000
1763445347.707,41.992,-23.438,-9.277,-9.277,0.000
1763445347.711,13.184,-24.902,-20.508,-15.137,0.000
1763445347.714,5.371,-15.137,-20.508,-3.906,0.000
1763445347.718,-7.324,-10.254,-17.578,-5.371,0.000
1763445347.722,-80.566,-11.719,-10.742,-11.230,0.000
1763445347.726,-90.332,-14.648,-9.766,-13.672,0.000
1763445347.730,-10.254,-15.137,-21.484,-10.254,0.000
1763445347.734,52.246,-6.348,-21.973,1.953,0.000
1763445347.738,43.945,-3.906,-14.160,-6.836,0.000
1763445347.742,18.555,-4.395,-12.207,-10.742,0.000
1763445347.746,-20.020,-10.742,-6.836,3.906,0.000
1763445347.750,-105.469,-20.996,-6.348,3.906,0.000
1763445347.753,-88.379,-20.508,-13.184,-4.883,0.000
1763445347.757,21.973,-15.137,-9.277,-11.719,0.000
1763445347.761,58.105,-9.766,-2.930,-4.883,0.000
1763445347.765,42.480,-6.348,-5.859,5.859,0.000
1763445347.769,49.805,-6.348,-7.324,23.926,0.000
1763445347.773,-3.906,-11.719,-11.719,18.066,0.000
1763445347.777,-83.984,-11.230,-21.484,-11.719,0.000
1763445347.781,-61.523,-11.719,-20.020,-3.906,0.000
1763445347.785,-1.465,-16.602,-11.230,6.836,0.000
1763445347.789,36.133,-18.066,-5.859,8.301,0.000
1763445347.793,28.809,-19.531,-9.766,0.977,0.000
1763445347.796,-24.414,-17.090,-19.531,-14.160,0.000
1763445347.800,-63.477,-12.695,-23.926,-16.113,0.000
1763445347.804,-47.852,-12.207,-36.133,6.836,0.000
1763445347.808,-6.348,-12.207,-35.156,10.254,0.000
1763445347.812,-38.086,-13.672,-20.508,-3.906,0.000
1763445347.816,-11.719,-10.742,-13.672,-2.930,0.000
1763445347.820,69.824,-12.695,19.043,11.230,0.000
1763445347.824,40.527,-21.484,39.062,1.953,0.000
1763445347.828,4.883,-20.508,29.785,-4.395,0.000
1763445347.832,6.348,-17.090,17.090,0.977,0.000
1763445347.835,17.578,-25.391,12.207,5.371,0.000
1763445347.839,12.207,-28.809,5.371,0.000,0.000
1763445347.843,-1.953,-18.066,-4.395,-2.930,0.000
1763445347.847,-15.625,-9.766,-9.277,1.465,0.000
1763445347.851,-33.203,-13.672,-9.277,7.324,0.000
1763445347.855,21.484,-13.184,-11.230,4.883,0.000
1763445347.859,61.035,-9.766,-9.277,-5.859,0.000
1763445347.863,-10.742,-12.695,-9.277,-0.977,0.000
1763445347.867,-50.781,-12.695,-23.438,-10.742,0.000
1763445347.871,17.090,-17.578,-20.996,-12.207,0.000
1763445347.875,69.336,-17.090,-8.789,6.836,0.000
1763445347.878,35.156,-10.742,-10.254,11.230,0.000
1763445347.882,-43.945,-15.625,-9.277,3.418,0.000
1763445347.886,-21.484,-16.602,-14.648,-10.742,0.000
1763445347.890,-16.113,-14.648,-18.555,-17.090,0.000
1763445347.894,-30.762,-13.184,-25.391,-24.902,0.000
1763445347.898,33.203,-9.277,-20.020,-16.602,0.000
1763445347.902,29.297,-12.207,-6.348,3.906,0.000
1763445347.906,0.488,-13.672,-9.766,10.254,0.000
1763445347.910,18.066,-17.090,-15.137,0.000,0.000
1763445347.914,0.000,-10.742,-16.602,-3.906,0.000
1763445347.918,0.000,-3.906,-17.090,1.465,0.000
1763445347.921,0.000,-14.648,-15.137,-8.789,0.000
1763445347.925,0.000,-18.066,-8.301,-13.184,0.000
1763445347.929,0.000,-11.230,-17.090,-3.906,0.000
1763445347.933,0.000,-8.789,-20.508,12.207,0.000
1763445347.937,0.000,-16.113,-13.672,18.555,0.000
1763445347.941,0.000,-17.578,-7.812,5.371,0.000
1763445347.945,0.000,-10.254,-8.789,4.395,0.000
1763445347.949,0.000,-12.695,-11.719,1.465,0.000
1763445347.953,0.000,-13.184,-8.789,-0.488,0.000
1763445347.957,0.000,-6.348,-21.973,17.090,0.000
1763445347.960,42.969,-7.324,-29.785,15.625,0.000
1763445347.964,-8.789,-11.230,-20.508,-4.883,0.000
1763445347.968,-50.293,-14.648,-7.324,1.465,0.000
1763445347.972,17.090,-13.184,-10.254,0.488,0.000
1763445347.976,81.543,-14.160,-13.672,-0.977,0.000
1763445347.980,65.430,-13.184,-7.812,-1.953,0.000
1763445347.984,22.949,-9.277,-8.789,-2.930,0.000
1763445347.988,1.953,-10.254,-12.695,-2.930,0.000
1763445347.992,1.465,-7.324,-8.789,4.883,0.000
1763445347.996,-31.738,-12.207,-5.859,9.277,0.000
1763445347.999,-68.848,-17.090,-4.395,6.836,0.000
1763445348.003,-6.348,-13.672,-3.906,-1.465,0.000
1763445348.007,-39.062,-17.578,-19.043,-17.578,0.000
1763445348.011,-13.184,-19.043,-19.043,-7.324,0.000
1763445348.015,-3.418,-20.020,-5.371,-1.465,0.000
1763445348.019,13.672,-19.043,-11.719,0.977,0.000
1763445348.023,50.781,-13.184,-17.090,3.906,0.000
1763445348.027,55.176,-7.324,-13.672,4.883,0.000
1763445348.031,36.133,-2.930,-15.625,2.930,0.000
1763445348.035,18.066,-7.812,-13.672,-9.766,0.000
1763445348.039,2.930,-12.695,-8.301,-4.395,0.000
1763445348.042,-35.645,-11.719,-20.020,5.371,0.000
1763445348.046,-36.621,-9.766,-26.855,-6.836,0.000
1763445348.050,-10.742,-14.160,-19.043,-12.207,0.000
1763445348.054,-9.766,-17.578,-19.531,-13.672,0.000
1763445348.058,5.371,-11.719,-19.531,-9.277,0.000
1763445348.062,26.855,-9.766,-13.672,-4.395,0.000
1763445348.066,18.066,-15.625,-17.578,-7.812,0.000
1763445348.070,-71.777,-22.949,-15.137,-12.695,0.000
1763445348.074,-103.516,-19.531,-6.348,-26.367,0.000
1763445348.078,-3.418,-15.137,-15.625,-32.227,0.000
1763445348.082,73.242,-18.066,-24.902,-8.301,0.000
1763445348.085,54.688,-16.113,-15.625,1.953,0.000
1763445348.089,20.996,-5.859,-11.230,4.395,0.000
1763445348.093,-7.324,-3.906,-5.859,8.789,0.000
1763445348.097,-20.020,-2.441,0.488,2.441,0.000
1763445348.101,-31.738,-7.324,-1.465,-8.789,0.000
1763445348.105,-34.668,-13.672,-8.301,-7.812,0.000
1763445348.109,8.789,-14.160,-16.113,-10.254,0.000
1763445348.113,-8.789,-20.996,-22.461,-4.395,0.000
1763445348.117,-53.223,-18.555,-29.297,-11.719,0.000
1763445348.121,-8.789,-11.719,-21.484,-22.949,0.000
1763445348.125,37.109,-10.742,-7.812,-15.137,0.000
1763445348.128,27.832,-11.719,-16.113,0.488,0.000
1763445348.132,-19.043,-11.719,-24.414,-0.488,0.000
1763445348.136,-54.688,-8.301,-14.160,-23.926,0.000
1763445348.140,-25.391,-8.789,-14.648,-23.926,0.000
1763445348.144,-7.324,-17.578,-19.531,-14.648,0.000
1763445348.148,19.043,-15.137,-9.277,-1.465,0.000
1763445348.152,33.691,-8.301,-1.465,4.395,0.000
1763445348.156,-8.789,-8.789,-8.789,-8.301,0.000
1763445348.160,-23.438,-12.695,-23.438,-9.277,0.000
1763445348.164,7.812,-9.766,-28.320,-8.789,0.000
1763445348.167,2.930,-10.254,-11.719,-18.555,0.000
1763445348.171,-35.156,-20.508,2.441,-21.973,0.000
1763445348.175,-33.691,-27.344,4.395,-15.625,0.000
1763445348.179,-16.113,-23.926,4.883,-9.277,0.000
1763445348.183,-16.113,-15.137,4.883,-17.578,0.000
1763445348.187,-7.324,-16.113,2.930,-15.625,0.000
1763445348.191,-53.711,-17.090,-7.324,-27.832,0.000
1763445348.195,-62.012,-7.812,-20.508,-30.762,0.000
1763445348.199,29.785,-7.324,-23.926,-1.953,0.000
1763445348.203,44.922,-9.277,-22.949,-1.465,0.000
1763445348.207,33.691,-8.301,-24.902,-14.160,0.000
1763445348.210,22.461,-12.695,-3.906,-7.324,0.000
1763445348.214,-23.926,-17.090,9.766,-8.301,0.000
1763445348.218,-52.734,-18.555,3.418,-15.625,0.000
1763445348.222,-74.219,-19.531,3.906,-19.043,0.000
1763445348.226,-22.949,-22.461,-4.395,-14.160,0.000
1763445348.230,52.246,-20.508,-6.348,-0.488,0.000
1763445348.234,25.879,-13.184,-2.930,7.324,0.000
1763445348.238,-42.969,-9.766,-17.090,9.277,0.000
1763445348.242,-61.035,-12.695,-19.043,-16.602,0.000
1763445348.246,-34.668,-20.020,-5.371,-25.879,0.000
1763445348.250,0.488,-24.902,-7.812,-6.836,0.000
1763445348.253,1.953,-23.438,-11.719,-2.930,0.000
1763445348.257,-2.930,-14.160,-10.254,-18.555,0.000
1763445348.261,-16.602,-8.789,-10.254,-15.137,0.000
1763445348.265,-46.875,-19.043,-8.301,-8.301,0.000
1763445348.269,-5.859,-20.996,-15.625,-26.367,0.000
1763445348.273,37.109,-15.137,-21.973,-11.230,0.000
1763445348.277,32.715,-8.301,-18.555,8.789,0.000
1763445348.281,4.883,-6.836,-17.578,0.000,0.000
1763445348.285,-61.035,-7.812,-10.254,-6.836,0.000
1763445348.289,-47.363,-7.324,-8.789,-0.977,0.000
1763445348.293,30.273,-13.184,-15.137,0.977,0.000
1763445348.296,51.758,-19.043,-13.672,-1.465,0.000
1763445348.300,40.039,-14.648,-14.648,6.348,0.000
1763445348.304,7.812,-3.418,-17.090,3.418,0.000
1763445348.308,-51.270,-9.766,-10.254,1.465,0.000
1763445348.312,-73.242,-15.625,-9.766,4.395,0.000
1763445348.316,-10.254,-14.160,-17.578,-10.742,0.000
1763445348.320,21.973,-13.184,-32.715,-22.949,0.000
1763445348.324,5.371,-14.648,-32.227,-12.207,0.000
1763445348.328,8.301,-17.578,-18.555,0.000,0.000
1763445348.332,-1.953,-16.113,-13.672,-2.930,0.000
1763445348.336,-21.484,-12.695,-11.230,1.953,0.000
1763445348.339,-46.875,-14.648,-13.672,5.859,0.000
1763445348.343,-15.137,-17.578,-12.207,0.977,0.000
1763445348.347,66.406,-15.625,-2.930,-16.113,0.000
1763445348.351,75.684,-15.625,5.371,-14.648,0.000
1763445348.355,57.129,-14.160,6.348,-2.441,0.000
1763445348.359,23.926,-6.348,-2.930,5.859,0.000
1763445348.363,-32.715,-7.812,-15.137,4.395,0.000
1763445348.367,-35.645,-9.766,-12.695,6.836,0.000
1763445348.371,-20.020,-7.812,-11.230,2.441,0.000
1763445348.375,-21.973,-14.648,-10.254,-7.324,0.000
1763445348.378,21.484,-18.555,-11.230,-5.371,0.000
1763445348.382,30.762,-17.090,-11.230,-3.906,0.000
1763445348.386,-0.488,-14.648,-13.184,0.488,0.000
1763445348.390,-9.766,-10.742,-21.973,-11.230,0.000
1763445348.394,-25.391,-15.625,-24.414,-23.926,0.000
1763445348.398,-12.207,-17.578,-26.855,-29.785,0.000
1763445348.402,0.977,-12.695,-41.504,-22.461,0.000
1763445348.406,-38.086,-13.184,-41.016,-3.418,0.000
1763445348.410,-47.852,-13.672,-14.648,0.977,0.000
1763445348.414,-0.488,-14.160,3.418,6.836,0.000
1763445348.418,26.367,-14.648,6.836,3.418,0.000
1763445348.421,10.254,-14.648,20.020,2.930,0.000
1763445348.425,-26.367,-13.672,27.832,9.277,0.000
1763445348.429,0.000,-17.578,20.020,-3.418,0.000
1763445348.433,0.000,-15.137,7.812,-15.137,0.000
1763445348.437,0.000,-15.137,-10.742,-18.555,0.000
1763445348.441,0.000,-18.555,-17.090,-6.348,0.000
1763445348.445,0.000,-13.184,-18.555,-0.488,0.000
1763445348.449,0.000,-8.301,-16.602,-14.648,0.000
1763445348.453,0.000,-9.277,-7.324,-7.324,0.000
1763445348.457,0.000,-15.625,-7.812,-5.859,0.000
1763445348.460,0.000,-16.602,-8.301,-22.949,0.000
1763445348.464,0.000,-15.137,-8.789,-33.203,0.000
1763445348.468,0.000,-12.207,-25.391,-22.949,0.000
1763445348.472,0.000,-12.695,-27.344,2.930,0.000
1763445348.476,-14.648,-13.672,-12.207,1.953,0.000
1763445348.480,-2.930,-9.277,-14.160,-11.719,0.000
1763445348.484,-6.348,-10.254,-14.648,-11.719,0.000
1763445348.488,-39.551,-13.672,-8.789,2.930,0.000
1763445348.492,-44.922,-14.160,-15.625,-13.672,0.000
1763445348.496,-18.555,-19.531,-20.508,-38.086,0.000
1763445348.500,-17.578,-20.020,-28.320,-30.273,0.000
1763445348.503,-22.949,-11.719,-33.203,-7.324,0.000
1763445348.507,3.906,-14.648,-22.461,-1.465,0.000
1763445348.511,34.180,-20.020,-14.160,-7.812,0.000
1763445348.515,13.672,-12.207,-14.160,-21.973,0.000
1763445348.519,-19.043,-8.789,-7.812,-21.484,0.000
1763445348.523,-2.441,-16.602,3.418,-9.766,0.000
1763445348.527,-33.691,-15.137,-12.695,-15.625,0.000
1763445348.531,-81.055,-10.254,-27.832,-12.695,0.000
1763445348.535,-3.906,-14.648,-13.184,-2.441,0.000
1763445348.539,40.039,-12.207,-3.906,-16.113,0.000
1763445348.543,-8.789,-6.348,-6.348,-14.648,0.000
1763445348.546,-1.953,-8.301,-24.414,-1.953,0.000
1763445348.550,12.207,-15.137,-25.879,-1.953,0.000
1763445348.554,-11.230,-15.625,-10.254,-7.324,0.000
1763445348.558,-6.836,-12.695,-26.855,-17.090,0.000
1763445348.562,26.367,-8.301,-32.715,-8.789,0.000
1763445348.566,33.203,-14.648,1.953,2.441,0.000
1763445348.570,-0.977,-20.508,17.578,8.789,0.000
1763445348.574,-48.828,-12.207,13.184,-0.977,0.000
1763445348.578,-38.086,-5.371,18.555,-9.766,0.000
1763445348.582,-0.977,-13.184,13.672,-10.254,0.000
1763445348.585,6.836,-20.020,4.395,-10.742,0.000
1763445348.589,26.367,-22.461,-0.977,-9.277,0.000
1763445348.593,6.836,-25.879,-10.254,-16.113,0.000
1763445348.597,-52.734,-33.691,-14.648,-20.020,0.000
1763445348.601,-76.660,-35.645,-14.648,-24.902,0.000
1763445348.605,-30.762,-26.367,-7.812,-29.297,0.000
1763445348.609,7.812,-23.438,-5.859,-16.602,0.000
1763445348.613,-3.906,-19.043,-17.578,-5.371,0.000
1763445348.617,17.578,-14.648,0.000,-0.977,0.000
1763445348.621,19.043,-14.160,0.000,-12.695,0.000
1763445348.625,-16.113,-18.066,0.000,-28.320,0.000
1763445348.628,-7.324,-22.949,0.000,-17.090,0.000
1763445348.632,-12.207,-18.555,0.000,-3.906,0.000
1763445348.636,-18.066,-10.254,0.000,7.812,0.000
1763445348.640,19.043,-0.977,0.000,2.441,0.000
1763445348.644,24.414,-10.254,0.000,-19.043,0.000
1763445348.648,6.348,-20.996,0.000,-15.625,0.000
1763445348.652,-39.551,-18.066,0.000,-15.625,0.000
1763445348.656,-48.828,-16.602,0.000,-18.066,0.000
1763445348.660,-0.977,-13.184,0.000,-14.648,0.000
1763445348.664,20.996,-9.766,-1.465,-6.348,0.000
1763445348.667,-12.207,-15.625,15.137,0.488,0.000
1763445348.671,-4.883,-11.719,13.672,-14.160,0.000
1763445348.675,30.762,-3.906,1.465,-28.809,0.000
1763445348.679,18.066,-4.883,-2.441,-29.785,0.000
1763445348.683,4.883,-6.836,-3.906,-7.324,0.000
1763445348.687,-27.832,-9.277,-7.324,-8.789,0.000
1763445348.691,-30.762,-9.277,-6.348,-28.320,0.000
1763445348.695,-16.113,-6.348,-1.953,-9.277,0.000
1763445348.699,-21.973,-6.836,-10.254,-19.043,0.000
1763445348.703,11.230,-6.836,-20.020,-26.855,0.000
1763445348.707,3.418,-7.324,-15.625,-0.488,0.000
1763445348.711,-44.434,-17.090,-13.672,-3.418,0.000
1763445348.714,-40.039,-15.137,-18.066,-21.973,0.000
1763445348.718,2.930,-4.395,-16.113,-13.184,0.000
1763445348.722,29.297,-14.648,-8.789,-16.113,0.000
1763445348.726,26.855,-23.438,-4.395,-25.879,0.000
1763445348.730,33.203,-12.695,-6.348,-20.020,0.000
1763445348.734,12.695,-10.254,-6.348,-14.648,0.000
1763445348.738,-50.781,-14.160,-17.578,-13.184,0.000
1763445348.742,-45.898,-19.531,-28.320,-27.832,0.000
1763445348.746,-24.414,-22.949,-20.020,-30.273,0.000
1763445348.750,-13.184,-11.230,-17.090,-12.695,0.000
1763445348.753,38.574,-9.766,-23.926,-10.254,0.000
1763445348.757,-1.465,-10.742,-20.020,-16.602,0.000
1763445348.761,-63.477,-4.395,-14.160,-8.301,0.000
1763445348.765,-17.578,-17.090,-22.949,-11.230,0.000
1763445348.769,37.598,-23.926,-25.391,-3.418,0.000
1763445348.773,34.180,-12.695,-15.137,5.371,0.000
1763445348.777,-30.273,-19.531,-10.742,-10.254,0.000
1763445348.781,-45.410,-21.484,-6.836,-40.527,0.000
1763445348.785,-8.301,-21.484,-7.812,-36.621,0.000
1763445348.789,10.742,-24.414,-11.719,-15.625,0.000
1763445348.793,-0.977,-21.973,-6.348,-11.230,0.000
1763445348.796,-25.391,-15.137,0.000,-5.859,0.000
1763445348.800,-36.621,-10.742,-7.324,-2.930,0.000
1763445348.804,-13.672,-8.789,-14.648,0.000,0.000
1763445348.808,26.367,-8.789,-15.137,0.000,0.000
1763445348.812,17.090,-1.465,-13.184,0.000,0.000
1763445348.816,-35.156,0.000,-17.090,0.000,0.000
1763445348.820,-63.965,-15.625,-22.461,0.000,0.000
1763445348.824,-40.527,-18.555,-8.789,0.000,0.000
1763445348.828,0.977,-10.254,-8.301,0.000,0.000
1763445348.832,25.879,-8.301,-13.184,0.000,0.000
1763445348.835,-2.930,-17.090,-6.836,0.000,0.000
1763445348.839,-34.668,-6.348,-7.324,0.000,0.000
1763445348.843,-17.090,2.930,-17.578,0.000,0.000
1763445348.847,-3.418,-3.906,-21.484,0.000,0.000
1763445348.851,33.691,-6.348,-1.465,0.488,0.000
1763445348.855,57.617,-6.348,9.277,-5.371,0.000
1763445348.859,17.578,-9.277,1.953,-12.207,0.000
1763445348.863,-18.555,-8.301,1.953,-17.578,0.000
1763445348.867,-15.625,-6.348,0.000,-12.207,0.000
1763445348.871,-48.340,-16.113,-2.930,-3.418,0.000
1763445348.875,-51.270,-14.648,-13.672,-27.344,0.000
1763445348.878,9.277,-14.160,-14.160,-20.020,0.000
1763445348.882,-23.926,-20.020,-9.766,-2.930,0.000
1763445348.886,-66.406,-12.695,-21.973,-26.855,0.000
1763445348.890,-1.465,-5.859,-18.066,-20.020,0.000
1763445348.894,42.969,-12.207,-6.348,-8.789,0.000
1763445348.898,-11.230,-14.648,0.000,-17.090,0.000
1763445348.902,-58.105,-13.672,0.000,0.488,0.000
1763445348.906,-38.574,-16.113,0.000,7.812,0.000
1763445348.910,14.648,-13.672,0.000,-1.465,0.000
1763445348.914,60.547,-8.301,0.000,-10.254,0.000
1763445348.918,32.715,-8.789,0.000,-23.438,0.000
1763445348.921,-13.672,-18.555,0.000,-13.184,0.000
1763445348.925,-25.391,-21.484,0.000,4.395,0.000
1763445348.929,9.277,-12.695,0.000,5.371,0.000
1763445348.933,27.344,-9.766,0.000,1.465,0.000
1763445348.937,-20.508,-20.508,0.000,-6.836,0.000
1763445348.941,-74.707,-24.902,0.000,-13.672,0.000
1763445348.945,-66.406,-19.531,-1.465,-11.230,0.000
1763445348.949,5.371,-19.043,0.000,5.859,0.000
1763445348.953,16.602,-16.113,-1.465,5.371,0.000
1763445348.957,-35.645,-16.113,-6.348,-6.836,0.000
1763445348.960,-77.637,-22.461,-10.254,-15.625,0.000
1763445348.964,-45.898,-20.996,-5.371,-16.113,0.000
1763445348.968,17.578,-21.973,-10.742,-15.137,0.000
1763445348.972,43.457,-20.996,-12.695,-18.066,0.000
1763445348.976,23.438,-15.137,-8.301,-15.625,0.000
1763445348.980,-46.875,-25.391,-11.230,-13.184,0.000
1763445348.984,-59.570,-25.879,-7.324,-12.695,0.000
1763445348.988,-0.488,-13.184,-1.953,-6.348,0.000
1763445348.992,-27.344,-24.902,-9.766,-18.066,0.000
1763445348.996,-59.082,-26.367,-20.020,-34.180,0.000
1763445349.000,-5.859,-17.578,-13.672,-12.695,0.000
1763445349.003,41.016,-12.695,-14.648,-7.324,0.000
1763445349.007,8.789,-8.789,-23.926,-14.648,0.000
1763445349.011,-3.418,-11.719,-21.484,-0.488,0.000
1763445349.015,-5.859,-15.137,-17.090,3.418,0.000
1763445349.019,-42.480,-15.625,-10.742,-30.273,0.000
1763445349.023,-39.062,-13.672,-2.441,-43.945,0.000
1763445349.027,-11.230,-9.766,-0.977,-4.395,0.000
1763445349.031,6.348,-6.348,2.441,17.578,0.000
1763445349.035,28.320,-7.812,-0.488,0.000,0.000
1763445349.039,16.113,-18.066,5.371,4.883,0.000
1763445349.043,-0.488,-19.531,1.953,-15.625,0.000
1763445349.046,-3.418,-11.719,-7.324,-25.391,0.000
1763445349.050,-30.273,-10.254,-8.789,0.488,0.000
1763445349.054,-39.062,-18.555,-9.766,-17.090,0.000
1763445349.058,-18.555,-17.578,-15.137,-29.297,0.000
1763445349.062,-30.762,-15.625,-18.555,-9.766,0.000
1763445349.066,14.160,-14.648,-8.789,2.930,0.000
1763445349.070,51.758,-5.371,-5.859,10.254,0.000
1763445349.074,-21.484,-10.254,-15.137,-8.789,0.000
1763445349.078,-52.246,-19.043,-17.578,-27.832,0.000
1763445349.082,-35.156,-25.879,-14.160,-16.602,0.000
1763445349.086,-19.531,-27.832,-13.184,-18.066,0.000
1763445349.089,-14.160,-19.531,-13.184,-24.902,0.000
1763445349.093,35.645,-17.090,-14.160,-20.508,0.000
1763445349.097,36.133,-10.742,-16.113,-0.488,0.000
1763445349.101,-40.527,-11.230,-11.230,11.719,0.000
1763445349.105,7.812,-15.625,-2.930,-0.977,0.000
1763445349.109,41.016,-11.719,0.977,-6.348,0.000
1763445349.113,24.414,-13.184,0.000,-9.277,0.000
1763445349.117,13.184,-20.996,-5.371,-4.883,0.000
1763445349.121,-14.648,-19.043,-7.324,4.883,0.000
1763445349.125,-36.133,-8.301,-10.742,-19.043,0.000
1763445349.128,-54.199,-12.695,-19.531,-28.320,0.000
1763445349.132,-34.180,-19.531,-20.508,-13.672,0.000
1763445349.136,-16.113,-20.020,-17.578,-21.973,0.000
1763445349.140,11.719,-21.484,-19.531,-21.973,0.000
1763445349.144,8.789,-22.461,-16.113,-16.113,0.000
1763445349.148,-32.715,-20.996,-9.277,-12.207,0.000
1763445349.152,-26.367,-19.043,-14.648,-23.438,0.000
1763445349.156,-13.184,-12.695,-18.555,-23.438,0.000
1763445349.160,5.371,-12.207,-15.625,-7.324,0.000
1763445349.164,11.230,-17.090,-13.672,-0.977,0.000
1763445349.168,7.812,-9.277,-12.207,-15.137,0.000
1763445349.171,7.812,-9.766,-12.207,-28.809,0.000
1763445349.175,2.930,-19.043,-21.973,-28.809,0.000
1763445349.179,-19.531,-19.531,-33.691,-28.809,0.000
1763445349.183,-52.246,-15.137,-30.273,-4.395,0.000
1763445349.187,-35.645,-16.602,-21.973,-6.836,0.000
1763445349.191,-33.691,-30.273,-17.090,-16.113,0.000
1763445349.195,-62.500,-30.273,-20.508,-16.602,0.000
1763445349.199,-52.734,-19.043,-26.855,-23.438,0.000
1763445349.203,-23.926,-17.578,-25.879,-22.461,0.000
1763445349.207,-7.324,-20.020,-26.855,-34.668,0.000
1763445349.211,8.789,-16.113,-26.855,-28.320,0.000
1763445349.214,-11.719,-21.484,-14.160,-6.836,0.000
1763445349.218,-60.059,-20.020,-14.160,-3.418,0.000
1763445349.222,-34.668,-18.066,-13.184,-7.812,0.000
1763445349.226,-3.906,-22.461,-14.160,-3.418,0.000
1763445349.230,14.160,-20.508,-30.273,-36.133,0.000
1763445349.234,27.832,-19.043,-34.180,-64.941,0.000
1763445349.238,8.789,-23.438,-24.902,-34.668,0.000
1763445349.242,-42.969,-24.414,-16.113,-2.930,0.000
1763445349.246,-109.375,-20.020,-17.578,-5.371,0.000
1763445349.250,-93.262,-20.020,-22.949,-13.672,0.000
1763445349.254,-17.578,-23.438,-23.438,-33.691,0.000
1763445349.257,7.324,-21.484,-20.020,-33.203,0.000
1763445349.261,37.109,-10.742,-19.043,-4.883,0.000
1763445349.265,60.547,-2.930,-15.625,-13.672,0.000
1763445349.269,-12.207,-12.695,-16.602,-11.719,0.000
1763445349.273,0.000,-15.137,-24.902,-6.348,0.000
1763445349.277,0.000,-18.066,-26.367,-12.207,0.000
1763445349.281,0.000,-18.066,-27.344,-24.414,0.000
1763445349.285,0.000,-8.789,-20.996,-27.344,0.000
1763445349.289,0.000,-10.254,-7.812,-2.441,0.000
1763445349.293,0.000,-10.254,-4.395,-8.301,0.000
1763445349.297,0.000,-20.020,-3.906,-3.906,0.000
1763445349.300,0.000,-24.414,-14.160,-14.648,0.000
1763445349.304,0.000,-14.160,-11.230,-13.672,0.000
1763445349.308,0.000,-5.859,-7.324,0.977,0.000
1763445349.312,0.000,-10.742,-17.578,-18.555,0.000
1763445349.316,0.000,-19.531,-9.766,-21.973,0.000
1763445349.320,-25.879,-9.277,-3.906,4.883,0.000
1763445349.324,33.691,0.977,-15.625,0.488,0.000
1763445349.328,26.855,-17.090,-17.090,-38.086,0.000
1763445349.332,8.301,-27.832,-20.508,-33.203,0.000
1763445349.336,-1.465,-14.160,-24.414,-18.066,0.000
1763445349.339,-14.648,-9.766,-12.695,7.812,0.000
1763445349.343,-33.203,-15.137,-12.695,7.812,0.000
1763445349.347,-20.996,-16.602,-16.113,4.883,0.000
1763445349.351,29.785,-14.648,-21.484,-13.184,0.000
1763445349.355,52.246,-12.207,-25.879,-27.832,0.000
1763445349.359,7.324,-14.648,-23.926,12.207,0.000
1763445349.363,-15.625,-19.531,-29.785,0.488,0.000
1763445349.367,-56.641,-22.949,-51.758,-28.320,0.000
1763445349.371,-41.992,-21.484,-58.105,-11.719,0.000
1763445349.375,21.973,-20.508,-31.738,-2.930,0.000
1763445349.379,37.598,-22.461,-18.555,-16.602,0.000
1763445349.382,2.930,-23.438,-24.414,-34.668,0.000
1763445349.386,-62.012,-20.020,-28.320,-31.738,0.000
1763445349.390,-58.105,-15.625,-18.555,2.441,0.000
1763445349.394,6.348,-17.578,-9.766,20.020,0.000
1763445349.398,35.156,-18.066,-16.113,14.648,0.000
1763445349.402,5.859,-24.902,-25.879,-18.066,0.000
1763445349.406,-41.992,-25.391,-22.949,-23.438,0.000
1763445349.410,-33.203,-12.207,-23.438,6.348,0.000
1763445349.414,-14.648,-11.719,-26.367,3.418,0.000
1763445349.418,-18.066,-7.812,-20.020,18.555,0.000
1763445349.422,5.371,-4.395,-16.113,35.645,0.000
1763445349.425,37.109,-7.812,-22.949,1.465,0.000
1763445349.429,46.387,-11.719,-27.344,-19.043,0.000
1763445349.433,27.832,-12.207,-25.391,-11.719,0.000
1763445349.437,-23.438,-16.113,-29.297,-13.184,0.000
1763445349.441,-52.734,-23.438,-25.879,-1.953,0.000
1763445349.445,-36.621,-28.809,-26.855,-5.859,0.000
1763445349.449,-0.977,-26.855,-30.273,-14.160,0.000
1763445349.453,-2.930,-20.996,-31.738,-20.508,0.000
1763445349.457,-25.879,-25.879,-22.949,-4.883,0.000
1763445349.461,-10.254,-15.625,-12.207,4.395,0.000
1763445349.464,1.953,-9.277,-16.602,1.953,0.000
1763445349.468,-0.488,-19.043,-18.066,0.000,0.000
1763445349.472,12.207,-20.508,-9.766,-12.695,0.000
1763445349.476,44.922,-15.137,-9.277,-17.090,0.000
1763445349.480,34.668,-14.648,-10.254,-9.766,0.000
1763445349.484,-1.465,-19.043,-10.254,-2.441,0.000
1763445349.488,-51.758,-19.531,-12.695,0.977,0.000
1763445349.492,-77.148,-13.672,-15.625,-3.906,0.000
1763445349.496,-0.977,-8.789,-26.855,1.465,0.000
1763445349.500,27.344,-19.043,-25.879,2.441,0.000
1763445349.504,11.719,-15.137,-26.855,-28.320,0.000
1763445349.507,5.859,-16.602,-29.785,-28.320,0.000
1763445349.511,-9.766,-26.367,-17.578,-8.301,0.000
1763445349.515,-21.973,-17.578,-11.719,0.977,0.000
1763445349.519,-70.801,-17.578,-17.578,-3.418,0.000
1763445349.523,-71.289,-23.926,-28.809,-18.555,0.000
1763445349.527,-31.250,-19.531,-25.879,-10.254,0.000
1763445349.531,-26.855,-17.578,-15.137,-17.578,0.000
1763445349.535,2.441,-32.715,-13.184,-29.297,0.000
1763445349.539,2.441,-23.926,-20.508,-2.441,0.000
1763445349.543,-41.992,-8.789,-21.484,12.695,0.000
1763445349.546,-42.480,-10.742,-20.508,0.488,0.000
1763445349.550,10.742,-10.742,-20.996,-11.230,0.000
1763445349.554,42.969,-14.648,-14.160,-7.324,0.000
1763445349.558,18.555,-14.648,-19.531,-27.344,0.000
1763445349.562,-20.508,-16.602,-24.414,-18.066,0.000
1763445349.566,-32.715,-11.719,-21.973,1.465,0.000
1763445349.570,-30.762,-16.113,-24.414,-21.484,0.000
1763445349.574,-45.898,-18.555,-26.367,-17.090,0.000
1763445349.578,-30.273,-13.672,-17.578,-1.953,0.000
1763445349.582,-5.859,-19.531,-23.926,-31.250,0.000
1763445349.586,7.812,-21.973,-30.762,-35.645,0.000
1763445349.589,-11.719,-15.137,-20.020,1.953,0.000
1763445349.593,-44.922,-6.836,-15.137,3.906,0.000
1763445349.597,-17.578,-5.859,-30.762,-44.434,0.000
1763445349.601,15.137,-5.859,0.000,-47.852,0.000
1763445349.605,5.371,-6.836,0.000,2.441,0.000
1763445349.609,-16.602,-15.625,0.000,1.465,0.000
1763445349.613,-44.922,-18.066,0.000,-0.488,0.000
1763445349.617,-23.926,-3.906,0.000,2.441,0.000
1763445349.621,15.625,-10.254,0.000,-23.926,0.000
1763445349.625,3.906,-26.367,0.000,-21.484,0.000
1763445349.629,-16.113,-24.414,0.000,-15.137,0.000
1763445349.632,-59.570,-19.043,0.000,-23.926,0.000
1763445349.636,-74.707,-20.508,0.000,-18.066,0.000
1763445349.640,-6.836,-17.090,0.000,5.371,0.000
1763445349.644,47.852,-16.602,0.000,0.000,0.000
1763445349.648,0.000,-21.484,-10.254,-29.785,0.000
1763445349.652,0.000,-30.273,-20.996,-23.926,0.000
1763445349.656,0.000,-20.508,-20.020,-11.230,0.000
1763445349.660,0.000,-14.648,-20.996,-19.043,0.000
1763445349.664,0.000,-16.113,-40.527,-30.273,0.000
1763445349.668,0.000,-11.230,-34.668,-0.488,0.000
1763445349.671,0.000,-20.020,-18.066,-20.508,0.000
1763445349.675,0.000,-11.230,-17.578,-32.227,0.000
1763445349.679,0.000,-8.789,-11.230,3.906,0.000
1763445349.683,0.000,-21.973,-12.695,0.488,0.000
1763445349.687,0.000,-16.113,-8.789,-29.297,0.000
1763445349.691,0.000,-19.531,-10.254,-44.434,0.000
1763445349.695,-67.383,-22.461,-19.043,-45.410,0.000
1763445349.699,-23.438,-17.090,-16.602,-15.137,0.000
1763445349.703,37.598,-9.766,-19.043,-7.812,0.000
1763445349.707,6.348,-21.484,-14.648,-17.090,0.000
1763445349.711,-22.949,-22.461,-19.043,-1.465,0.000
1763445349.714,11.719,-14.160,-33.203,-3.906,0.000
1763445349.718,28.809,-10.254,-18.555,-2.441,0.000
1763445349.722,-1.953,-3.906,-12.207,-7.812,0.000
1763445349.726,-67.871,-9.277,-17.090,-30.273,0.000
1763445349.730,-90.820,-10.742,-22.461,-35.156,0.000
1763445349.734,-36.621,-20.020,-20.020,-8.789,0.000
1763445349.738,28.320,-22.461,-11.719,-13.672,0.000
1763445349.742,21.973,-22.461,-8.789,-36.133,0.000
1763445349.746,3.906,-19.043,-4.395,-28.320,0.000
1763445349.750,-40.527,-16.602,-9.277,-24.414,0.000
1763445349.753,-21.484,-17.090,-14.648,-33.203,0.000
1763445349.757,-27.832,-16.602,-15.137,-20.020,0.000
1763445349.761,-39.551,-15.625,-3.418,-1.953,0.000
1763445349.765,41.504,-9.766,-4.395,-17.090,0.000
1763445349.769,0.488,-16.602,-10.254,-13.184,0.000
1763445349.773,-37.598,-22.461,-18.066,-4.395,0.000
1763445349.777,-23.926,-18.555,-22.949,-14.160,0.000
1763445349.781,-41.504,-20.020,-17.090,-28.809,0.000
1763445349.785,-7.324,-22.461,-6.348,2.930,0.000
1763445349.789,8.789,-18.066,2.441,27.344,0.000
1763445349.793,-26.367,-16.602,-9.277,-6.836,0.000
1763445349.796,-16.602,-22.949,-22.949,-24.414,0.000
1763445349.800,-8.301,-22.949,-15.625,-11.230,0.000
1763445349.804,-38.086,-10.742,-11.719,-2.441,0.000
1763445349.808,-38.086,-15.625,-5.859,0.488,0.000
1763445349.812,-2.441,-25.391,-7.324,4.883,0.000
1763445349.816,14.648,-17.090,-20.996,-22.949,0.000
1763445349.820,-6.348,-14.160,-27.344,-29.297,0.000
1763445349.824,-20.020,-20.020,-24.414,2.441,0.000
1763445349.828,1.953,-14.648,-8.789,-6.348,0.000
1763445349.832,6.348,-22.461,-10.254,-20.020,0.000
1763445349.836,11.719,-14.160,-16.113,1.953,0.000
1763445349.839,0.488,-10.254,-6.348,-9.277,0.000
1763445349.843,-7.324,-19.043,-1.953,-25.879,0.000
1763445349.847,-17.578,-26.855,-9.277,-15.625,0.000
1763445349.851,-78.613,-33.691,-22.461,-28.809,0.000
1763445349.855,-42.969,-24.902,-27.344,-41.504,0.000
1763445349.859,-18.555,-15.137,-30.762,-33.203,0.000
1763445349.863,-27.344,-20.996,-20.996,-9.766,0.000
1763445349.867,-26.855,-33.691,-17.578,13.672,0.000
1763445349.871,-24.902,-21.484,-21.484,-2.441,0.000
1763445349.875,11.719,-2.930,-13.184,-5.371,0.000
1763445349.878,13.184,-6.348,-14.648,-3.906,0.000
1763445349.882,-7.324,-22.949,-24.902,-22.461,0.000
1763445349.886,-9.277,-23.926,-26.855,-30.273,0.000
1763445349.890,-37.109,-21.973,-18.555,-5.859,0.000
1763445349.894,-15.625,-20.508,-12.207,3.906,0.000
1763445349.898,8.301,-15.625,-11.230,0.000,0.000
1763445349.902,-12.207,-12.207,-17.090,-0.488,0.000
1763445349.906,-12.695,-7.324,-27.344,-10.742,0.000
1763445349.910,-0.977,-10.742,-29.785,-18.555,0.000
1763445349.914,19.531,-16.602,-22.949,-10.742,0.000
1763445349.918,12.207,-13.184,-8.789,-10.254,0.000
1763445349.921,-51.758,-17.090,1.953,-13.184,0.000
1763445349.925,-62.012,-20.508,4.883,2.441,0.000
1763445349.929,-38.574,-25.879,-2.441,-5.371,0.000
1763445349.933,-43.457,-23.926,-19.043,-26.367,0.000
1763445349.937,0.488,-13.672,-27.344,-33.203,0.000
1763445349.941,-0.488,-24.902,-21.973,-22.949,0.000
1763445349.945,-15.625,-28.809,-24.414,-9.766,0.000
1763445349.949,-8.789,-31.250,-30.762,-18.066,0.000
1763445349.953,-23.926,-34.180,-31.738,-17.090,0.000
1763445349.957,-41.992,-22.461,-27.344,-10.254,0.000
1763445349.960,-45.410,-14.160,-15.625,-22.949,0.000
1763445349.964,-30.273,-24.902,-6.836,-26.367,0.000
1763445349.968,-19.531,-29.297,-13.672,-45.410,0.000
1763445349.972,-34.668,-20.020,-24.414,-48.340,0.000
1763445349.976,-47.852,-21.973,0.000,-13.672,0.000
1763445349.980,4.883,-23.926,0.000,-10.254,0.000
1763445349.984,17.578,-22.461,0.000,-24.902,0.000
1763445349.988,-14.160,-22.949,0.000,-14.160,0.000
1763445349.992,-6.348,-17.090,0.000,-21.973,0.000
1763445349.996,-9.277,-18.555,0.000,-23.438,0.000
1763445350.000,-2.930,-5.859,0.000,2.930,0.000
1763445350.003,9.766,1.953,0.000,13.184,0.000
1763445350.007,7.324,-15.625,0.000,-2.930,0.000
1763445350.011,-12.695,-20.020,0.000,-25.391,0.000
1763445350.015,-26.367,-12.695,0.000,-24.902,0.000
1763445350.019,-19.043,-0.977,0.000,10.742,0.000
1763445350.023,-35.645,-7.324,-21.484,12.695,0.000
1763445350.027,-31.738,-21.973,-4.883,-10.254,0.000
1763445350.031,-13.672,-21.973,-0.977,-14.648,0.000
1763445350.035,-22.949,-25.391,3.418,-25.879,0.000
1763445350.039,-39.062,-27.832,7.324,-27.344,0.000
1763445350.043,-13.184,-20.508,4.395,-21.973,0.000
1763445350.046,21.973,-27.344,-0.488,-30.273,0.000
1763445350.050,-37.598,-30.762,1.953,-31.738,0.000
1763445350.054,-62.012,-17.578,0.000,5.371,0.000
1763445350.058,-33.691,-24.414,-9.277,-3.906,0.000
1763445350.062,-0.488,-19.043,-13.672,-10.742,0.000
1763445350.066,-18.066,-15.137,-13.184,3.418,0.000
1763445350.070,-41.992,-23.438,-8.301,-10.254,0.000
1763445350.074,-13.184,-18.066,-12.207,-7.324,0.000
1763445350.078,-26.855,-17.090,-21.973,-16.602,0.000
1763445350.082,-51.270,-15.137,-23.926,-27.832,0.000
1763445350.085,-27.344,-18.555,-23.926,-13.184,0.000
1763445350.089,-34.180,-20.508,-26.367,1.953,0.000
1763445350.093,-30.273,-19.531,-26.367,-14.648,0.000
1763445350.097,-15.137,-12.695,-24.414,-24.902,0.000
1763445350.101,-53.711,-15.137,-33.203,-33.203,0.000
1763445350.105,-80.078,-20.020,-52.734,-43.945,0.000
1763445350.109,-35.156,-13.672,-49.805,-14.160,0.000
1763445350.113,25.879,-11.719,-29.297,-19.043,0.000
1763445350.117,30.762,-15.625,-16.602,-39.551,0.000
1763445350.121,13.184,-20.020,-16.113,-12.207,0.000
1763445350.125,-9.766,-19.043,-8.789,-2.930,0.000
1763445350.128,-38.086,-9.766,-0.488,-9.766,0.000
1763445350.132,-49.805,-6.348,-9.766,-15.625,0.000
1763445350.136,-90.820,-17.578,-22.461,-19.531,0.000
1763445350.140,-62.500,-21.973,-40.527,-25.391,0.000
1763445350.144,9.277,-19.043,-30.762,-23.926,0.000
1763445350.148,12.695,-18.066,6.836,-19.531,0.000
1763445350.152,-8.789,-19.043,15.137,-18.066,0.000
1763445350.156,-48.828,-17.090,9.766,-5.859,0.000
1763445350.160,-42.480,-22.949,7.324,-20.996,0.000
1763445350.164,-27.344,-32.715,-2.441,-36.133,0.000
1763445350.167,-14.160,-32.715,-5.859,-38.574,0.000
1763445350.171,-15.137,-29.297,-3.906,-37.598,0.000
1763445350.175,-47.852,-29.297,-3.418,-17.578,0.000
1763445350.179,-44.434,-26.855,-14.648,-26.855,0.000
1763445350.183,-30.762,-20.020,-14.648,-29.297,0.000
1763445350.187,-36.621,-19.043,0.488,-17.578,0.000
1763445350.191,-12.695,-20.020,-12.207,-19.043,0.000
1763445350.195,13.184,-18.555,-19.043,-22.949,0.000
1763445350.199,3.906,-9.766,-12.207,-4.395,0.000
1763445350.203,0.977,-4.883,-43.457,8.789,0.000
1763445350.207,-14.160,-15.625,-57.617,-10.742,0.000
1763445350.210,-50.781,-25.391,-47.852,-34.668,0.000
1763445350.214,-51.758,-26.855,-54.688,-24.902,0.000
1763445350.218,-7.324,-20.996,-21.973,1.465,0.000
1763445350.222,12.207,-26.855,43.457,0.000,0.000
1763445350.226,-1.465,-35.156,67.871,-30.762,0.000
1763445350.230,-20.020,-35.156,56.152,-42.969,0.000
1763445350.234,-24.902,-28.809,37.598,-29.785,0.000
1763445350.238,-21.484,-25.879,19.531,-30.273,0.000
1763445350.242,-23.438,-17.090,16.602,-14.160,0.000
1763445350.246,-33.691,-7.812,8.789,0.488,0.000
1763445350.249,-25.391,-20.508,-8.301,-15.137,0.000
1763445350.253,-16.113,-25.879,-12.207,-24.414,0.000
1763445350.257,-21.484,-27.344,-7.324,-37.109,0.000
1763445350.261,-51.758,-20.996,-16.113,-50.781,0.000
1763445350.265,-53.711,-7.812,-13.672,-16.602,0.000
1763445350.269,-27.344,-15.625,-11.719,-8.789,0.000
1763445350.273,-25.879,-23.926,-16.602,-38.086,0.000
1763445350.277,-6.348,-18.066,-11.230,-41.016,0.000
1763445350.281,3.906,-14.648,-20.508,-40.527,0.000
1763445350.285,-2.930,-19.531,-10.742,-22.949,0.000
1763445350.289,-24.414,-23.438,2.441,-24.414,0.000
1763445350.292,-20.508,-12.695,-4.883,-30.762,0.000
1763445350.296,-34.668,-23.438,-2.441,-13.672,0.000
1763445350.300,-86.426,-31.738,11.230,-27.344,0.000
1763445350.304,0.000,-27.832,20.020,-49.805,0.000
1763445350.308,0.000,-26.367,24.414,-59.082,0.000
1763445350.312,0.000,-23.438,16.113,-66.895,0.000
1763445350.316,0.000,-20.508,1.465,-46.875,0.000
1763445350.320,0.000,-18.066,-5.371,-42.480,0.000
1763445350.324,0.000,-18.066,-11.230,-70.312,0.000
1763445350.328,0.000,-19.043,-8.301,-66.895,0.000
1763445350.332,0.000,-35.645,-8.789,-58.594,0.000
1763445350.335,0.000,-31.250,-19.531,-62.988,0.000
1763445350.339,0.000,-15.625,-15.137,-69.336,0.000
1763445350.343,0.000,-20.020,20.508,-72.754,0.000
1763445350.347,0.000,-20.996,41.992,-64.941,0.000
1763445350.351,-81.543,-20.508,32.227,-39.551,0.000
1763445350.355,-16.602,-20.508,23.926,-30.273,0.000
1763445350.359,1.953,-16.602,14.648,-36.621,0.000
1763445350.363,-33.203,-18.066,14.648,-27.832,0.000
1763445350.367,-54.688,-18.066,1.953,-28.320,0.000
1763445350.371,-90.332,-8.301,-39.062,-27.832,0.000
1763445350.374,-74.707,-14.648,-59.082,-20.020,0.000
1763445350.378,-34.668,-24.902,-27.344,-9.277,0.000
1763445350.382,-34.180,-24.902,18.555,-13.184,0.000
1763445350.386,-49.316,-33.691,36.621,-20.996,0.000
1763445350.390,-31.738,-37.598,30.273,-21.484,0.000
1763445350.394,-49.316,-26.855,16.113,-32.715,0.000
1763445350.398,-26.855,-23.926,19.531,-39.551,0.000
1763445350.402,-26.855,-28.320,15.625,-19.531,0.000
1763445350.406,-69.824,-18.066,-20.996,-6.836,0.000
1763445350.410,-34.180,-13.672,-13.184,2.441,0.000
1763445350.413,-15.625,-18.066,-6.836,9.277,0.000
1763445350.417,-19.531,-7.324,-39.062,6.836,0.000
1763445350.421,-22.461,-9.766,-27.832,-2.441,0.000
1763445350.425,-39.551,-26.367,-5.371,-14.648,0.000
1763445350.429,-19.531,-25.879,13.672,-16.113,0.000
1763445350.433,-17.578,-28.809,28.320,-17.578,0.000
1763445350.437,-41.504,-32.715,22.949,-20.020,0.000
1763445350.441,-54.199,-26.855,6.348,-19.531,0.000
1763445350.445,-23.926,-27.344,0.977,-12.695,0.000
1763445350.449,-20.020,-25.391,-3.418,-9.766,0.000
1763445350.453,-33.691,-24.902,-12.695,-11.719,0.000
1763445350.456,-22.461,-28.320,-26.367,-17.578,0.000
1763445350.460,-19.043,-30.273,-27.832,-13.184,0.000
1763445350.464,-5.859,-28.320,-13.672,-0.488,0.000
1763445350.468,-12.207,-28.320,-11.719,-10.742,0.000
1763445350.472,-26.855,-24.902,-7.324,-4.883,0.000
1763445350.476,-17.090,-20.996,-2.930,-2.441,0.000
1763445350.480,-3.418,-21.973,-8.301,-7.324,0.000
1763445350.484,-16.602,-18.555,-16.602,-4.883,0.000
1763445350.488,-36.133,-17.090,-16.113,-16.113,0.000
1763445350.492,-43.457,-25.391,-9.766,-18.066,0.000
1763445350.495,-37.109,-29.785,-17.090,-2.930,0.000
1763445350.499,-22.461,-19.043,-13.184,5.859,0.000
1763445350.503,-16.602,-10.742,0.000,9.277,0.000
1763445350.507,-17.090,-15.625,-2.441,4.883,0.000
1763445350.511,-5.859,-19.043,-12.695,-3.418,0.000
1763445350.515,-21.973,-15.625,-14.648,-17.090,0.000
1763445350.519,-34.668,-8.789,-19.531,-24.902,0.000
1763445350.523,-21.484,-14.160,-16.602,-14.160,0.000
1763445350.527,-8.789,-24.414,-12.207,-3.906,0.000
1763445350.531,-17.578,-22.461,-21.973,-13.672,0.000
1763445350.535,-31.250,-19.043,-16.113,-19.043,0.000
1763445350.538,0.000,-20.996,-4.395,-10.742,0.000
1763445350.542,0.000,-24.414,-5.371,-8.789,0.000
1763445350.546,0.000,-20.020,-4.883,-1.465,0.000
1763445350.550,0.000,-19.531,-6.836,-2.930,0.000
1763445350.554,0.000,-24.414,-15.625,-18.555,0.000
1763445350.558,0.000,-18.066,-22.461,-22.949,0.000
1763445350.562,0.000,-11.719,-23.926,-10.742,0.000
1763445350.566,0.000,-12.207,-25.879,-12.207,0.000
1763445350.570,0.000,-14.160,-26.367,-20.996,0.000
1763445350.574,0.000,-11.230,-18.555,-9.766,0.000
1763445350.577,0.000,-6.348,-19.043,-14.648,0.000
1763445350.581,0.000,-7.812,-23.926,-23.926,0.000
1763445350.585,-23.926,-16.113,-21.973,-18.555,0.000
1763445350.589,-19.043,-11.230,-18.555,-15.137,0.000
1763445350.593,22.949,-5.371,-17.578,-22.461,0.000
1763445350.597,-0.488,-23.438,-20.508,-26.367,0.000
1763445350.601,-43.457,-34.180,-28.320,-29.785,0.000
1763445350.605,-24.902,-23.438,-20.996,-11.230,0.000
1763445350.609,-18.555,-18.066,-12.207,-3.906,0.000
1763445350.613,-31.738,-19.531,-13.184,-21.484,0.000
1763445350.617,-26.367,-23.926,-15.137,-28.320,0.000
1763445350.620,-65.430,-25.879,-12.695,-30.762,0.000
1763445350.624,-95.215,-28.320,-15.137,-30.273,0.000
1763445350.628,-52.734,-21.973,-20.508,-29.297,0.000
1763445350.632,-18.066,-16.113,-20.996,-13.672,0.000
1763445350.636,-20.508,-22.461,-23.438,-9.277,0.000
1763445350.640,-24.414,-21.973,-18.066,-23.438,0.000
1763445350.644,-23.438,-19.531,-14.648,-23.438,0.000
1763445350.648,-30.273,-15.625,-8.301,-3.418,0.000
1763445350.652,-43.457,-16.113,-5.859,-14.648,0.000
1763445350.656,-55.664,-27.832,-20.020,-37.109,0.000
1763445350.660,-44.434,-29.297,-26.855,-35.645,0.000
1763445350.663,-57.129,-25.391,-31.250,-25.391,0.000
1763445350.667,-56.641,-20.996,-21.973,-20.020,0.000
1763445350.671,-21.484,-19.531,-13.184,-20.020,0.000
1763445350.675,-20.508,-20.020,-19.531,-6.348,0.000
1763445350.679,-59.570,-17.578,-15.137,-7.812,0.000
1763445350.683,-67.871,-17.578,-13.672,-18.555,0.000
1763445350.687,-32.715,-18.066,-11.719,-18.555,0.000
1763445350.691,-14.160,-15.625,-9.766,-21.484,0.000
1763445350.695,-11.230,-7.812,-10.742,-19.043,0.000
1763445350.699,-57.617,-10.742,-11.230,-22.461,0.000
1763445350.703,-78.125,-11.230,-9.766,-26.367,0.000
1763445350.706,-33.203,-11.230,-4.395,-26.367,0.000
1763445350.710,-17.578,-14.648,-10.254,-25.879,0.000
1763445350.714,-33.203,-14.648,-24.902,-19.531,0.000
1763445350.718,-58.594,-18.066,-32.227,-22.461,0.000
1763445350.722,-69.824,-14.648,-23.438,-30.273,0.000
1763445350.726,-21.484,-15.625,-9.766,-28.809,0.000
1763445350.730,6.836,-11.719,-11.230,-15.625,0.000
1763445350.734,-34.668,-11.719,-12.695,-13.184,0.000
1763445350.738,-61.035,-21.484,-10.742,-34.180,0.000
1763445350.742,-43.457,-22.949,-5.859,-42.480,0.000
1763445350.745,-26.855,-17.578,-2.930,-43.457,0.000
1763445350.749,-46.387,-12.695,-23.438,-33.203,0.000
1763445350.753,-64.453,-10.742,-36.133,-12.695,0.000
1763445350.757,-50.781,-12.207,-27.832,-17.578,0.000
1763445350.761,-27.344,-18.066,-9.766,-36.133,0.000
1763445350.765,-17.090,-14.648,4.395,-28.320,0.000
1763445350.769,-19.043,-9.766,5.859,-13.672,0.000
1763445350.773,-26.855,-11.230,0.000,-26.855,0.000
1763445350.777,-16.602,-12.207,-6.836,-29.785,0.000
1763445350.781,-39.062,-11.230,-8.301,-20.508,0.000
1763445350.785,-50.293,-8.301,-10.254,-22.461,0.000
1763445350.788,-39.062,-4.395,-18.066,-22.949,0.000
1763445350.792,-68.359,-9.277,-25.879,-41.504,0.000
1763445350.796,-41.504,-3.906,-15.137,-36.133,0.000
1763445350.800,-11.719,-6.348,-11.719,-15.137,0.000
1763445350.804,-31.738,-12.695,-16.113,-9.766,0.000
1763445350.808,-30.273,-4.883,-15.625,-13.184,0.000
1763445350.812,-42.480,-18.066,-15.137,-31.738,0.000
1763445350.816,-58.594,-21.484,-8.301,-38.086,0.000
1763445350.820,0.000,-17.578,-11.719,-28.320,0.000
1763445350.824,0.000,-20.508,-13.672,-23.438,0.000
1763445350.827,0.000,-20.996,-10.742,-29.297,0.000
1763445350.831,0.000,-18.555,-13.184,-29.297,0.000
1763445350.835,0.000,-17.578,-17.578,-26.855,0.000
1763445350.839,0.000,-16.113,-29.297,-34.668,0.000
1763445350.843,0.000,-19.531,-29.785,-31.250,0.000
1763445350.847,0.000,-20.508,-11.230,-20.996,0.000
1763445350.851,0.000,-12.207,-4.395,-25.391,0.000
1763445350.855,0.000,-15.137,-9.766,-38.574,0.000
1763445350.859,0.000,-21.484,-18.066,-39.062,0.000
1763445350.863,0.000,-13.672,-20.020,-25.391,0.000
1763445350.867,-65.918,-8.789,-17.090,-22.949,0.000
1763445350.870,-61.035,-14.160,-14.648,-23.438,0.000
1763445350.874,-50.781,-22.949,-11.230,-26.367,0.000
1763445350.878,-29.785,-25.879,-9.766,-31.738,0.000
1763445350.882,-21.484,-26.855,-12.207,-40.527,0.000
1763445350.886,-28.320,-25.879,-12.207,-38.086,0.000
1763445350.890,-23.926,-21.973,-9.766,-33.691,0.000
1763445350.894,-19.043,-18.555,-9.766,-38.574,0.000
1763445350.898,-23.438,-15.137,-4.883,-28.809,0.000
1763445350.902,-41.992,-9.766,-5.371,-32.227,0.000
1763445350.906,-59.082,-1.465,-14.160,-30.762,0.000
1763445350.910,-51.270,2.930,-23.438,-24.414,0.000
1763445350.913,-37.598,-8.301,-18.555,-26.855,0.000
1763445350.917,-25.879,-14.160,-5.371,-28.320,0.000
1763445350.921,-22.461,-12.207,-4.883,-33.691,0.000
1763445350.925,-26.855,-8.789,-7.812,-38.086,0.000
1763445350.929,-31.738,-10.742,-5.371,-34.668,0.000
1763445350.933,-29.297,-12.207,-1.465,-33.203,0.000
1763445350.937,-56.152,-15.137,-4.883,-39.551,0.000
1763445350.941,-73.242,-21.973,-3.906,-32.715,0.000
1763445350.945,-57.617,-23.926,-1.953,-32.715,0.000
1763445350.949,-60.547,-25.391,-6.348,-36.621,0.000
1763445350.952,-29.785,-20.020,-18.555,-47.363,0.000
1763445350.956,-19.531,-14.648,-19.531,-48.340,0.000
1763445350.960,-52.246,-12.695,-6.836,-36.621,0.000
1763445350.964,-53.711,-14.160,-9.766,-36.133,0.000
1763445350.968,-18.555,-16.602,-11.719,-34.668,0.000
1763445350.972,-20.020,-17.578,-6.348,-28.320,0.000
1763445350.976,-33.203,-15.625,-3.418,-33.203,0.000
1763445350.980,-12.207,-15.137,-1.953,-38.086,0.000
1763445350.984,-36.621,-15.137,-14.160,-33.203,0.000
1763445350.988,-57.129,-10.742,-17.578,-28.320,0.000
1763445350.992,-44.434,-17.578,-11.719,-21.973,0.000
1763445350.995,-24.414,-20.508,-13.672,-25.879,0.000
1763445350.999,-19.531,-10.742,-9.277,-29.785,0.000
1763445351.003,-38.574,-13.184,0.488,-23.926,0.000
1763445351.007,0.000,-14.648,0.488,-22.461,0.000
1763445351.011,0.000,-18.555,-3.906,-23.438,0.000
1763445351.015,0.000,-15.625,-12.695,-25.879,0.000
1763445351.019,0.000,-13.672,-20.508,-26.855,0.000
1763445351.023,0.000,-18.066,-17.090,-25.879,0.000
1763445351.027,0.000,-11.719,-2.930,-20.996,0.000
1763445351.031,0.000,-17.578,9.766,-17.090,0.000
1763445351.035,0.000,-21.973,6.348,-25.879,0.000
1763445351.038,0.000,-20.996,-0.488,-30.762,0.000
1763445351.042,0.000,-18.555,2.441,-29.785,0.000
1763445351.046,0.000,-14.648,4.395,-31.250,0.000
1763445351.050,0.000,-17.578,-0.977,-27.344,0.000
1763445351.054,-42.480,-13.672,-1.465,-23.438,0.000
1763445351.058,-34.668,-13.672,-5.859,-31.250,0.000
1763445351.062,-30.762,-13.184,-6.836,-33.691,0.000
1763445351.066,-48.340,-16.113,-3.906,-25.391,0.000
1763445351.070,-42.480,-21.484,-5.371,-27.344,0.000
1763445351.074,-27.344,-18.066,-4.883,-24.902,0.000
1763445351.077,-38.574,-16.602,-2.930,-19.531,0.000
1763445351.081,-31.738,-19.531,-9.277,-20.508,0.000
1763445351.085,-21.484,-12.695,-15.625,-18.066,0.000
1763445351.089,-32.715,-9.277,-4.883,-21.973,0.000
1763445351.093,-30.273,-12.207,1.953,-26.855,0.000
1763445351.097,-23.438,-8.301,0.488,-28.320,0.000
1763445351.101,-13.184,-8.789,1.465,-21.484,0.000
1763445351.105,-10.742,-5.371,7.324,-9.766,0.000
1763445351.109,-37.598,-8.301,3.906,-13.184,0.000
1763445351.113,-82.520,-20.996,2.441,-20.020,0.000
1763445351.117,-69.336,-20.996,-0.977,-18.555,0.000
1763445351.120,-27.832,-18.066,-3.418,-24.902,0.000
1763445351.124,-29.785,-25.879,-8.301,-33.691,0.000
1763445351.128,-18.555,-23.438,-14.648,-28.809,0.000
1763445351.132,-22.461,-18.555,-13.184,-26.855,0.000
1763445351.136,-39.551,-17.578,-8.789,-31.250,0.000
1763445351.140,-43.457,-15.137,-15.137,-35.645,0.000
1763445351.144,-48.828,-23.926,-26.367,-43.945,0.000
1763445351.148,-51.270,-32.227,-33.203,-61.523,0.000
1763445351.152,-53.223,-37.598,-31.250,-57.617,0.000
1763445351.156,-56.641,-38.574,-22.949,-44.434,0.000
1763445351.160,-71.289,-36.133,-25.879,-57.617,0.000
1763445351.163,-85.449,-28.809,-26.367,-57.129,0.000
1763445351.167,-106.445,-24.414,-12.207,-33.203,0.000
1763445351.171,-72.754,-30.273,-19.531,-30.762,0.000
1763445351.175,-17.578,-34.180,-31.738,-40.527,0.000
1763445351.179,-5.371,-32.715,-22.461,-40.527,0.000
1763445351.183,-1.465,-26.855,-14.648,-35.645,0.000
1763445351.187,-30.273,-22.949,-18.555,-40.527,0.000
1763445351.191,-35.645,-20.996,-15.137,-41.992,0.000
1763445351.195,-14.648,-20.020,-13.672,-32.715,0.000
1763445351.199,-41.016,-20.996,-22.949,-32.715,0.000
1763445351.202,-65.430,-27.344,-30.273,-43.945,0.000
1763445351.206,-59.570,-36.621,-27.832,-43.945,0.000
1763445351.210,-60.059,-35.645,-26.855,-45.410,0.000
1763445351.214,-37.598,-33.203,-23.438,-48.828,0.000
1763445351.218,-26.855,-34.180,-13.184,-41.504,0.000
1763445351.222,-34.668,-30.273,-11.719,-41.504,0.000
1763445351.226,-17.578,-27.832,-22.949,-41.992,0.000
1763445351.230,-18.555,-26.367,-23.926,-38.086,0.000
1763445351.234,-42.480,-23.438,-13.184,-41.992,0.000
1763445351.238,-57.617,-22.949,-16.113,-39.551,0.000
1763445351.241,-58.105,-21.973,-20.996,-43.945,0.000
1763445351.245,-64.941,-16.602,-11.719,-51.270,0.000
1763445351.249,-51.758,-18.555,-4.883,-43.457,0.000
1763445351.253,-11.230,-28.320,-12.695,-43.945,0.000
1763445351.257,-10.254,-30.273,-13.184,-39.551,0.000
1763445351.261,-25.391,-24.902,-7.324,-34.180,0.000
1763445351.265,-30.762,-26.855,-6.836,-37.109,0.000
1763445351.269,-60.059,-28.809,-9.766,-37.109,0.000
1763445351.273,-63.965,-22.949,-13.672,-37.598,0.000
1763445351.277,-13.672,-15.137,-15.137,-36.621,0.000
1763445351.281,-1.465,-19.043,-0.488,-30.762,0.000
1763445351.284,-18.555,-25.879,1.465,-29.785,0.000
1763445351.288,0.000,-23.438,-5.371,-26.367,0.000
1763445351.292,0.000,-19.043,-8.789,-25.391,0.000
1763445351.296,0.000,-20.508,-20.996,-22.949,0.000
1763445351.300,0.000,-21.484,-20.508,-26.367,0.000
1763445351.304,0.000,-20.996,-16.113,-34.668,0.000
1763445351.308,0.000,-20.996,-12.695,-25.391,0.000
1763445351.312,0.000,-21.973,-10.254,-16.113,0.000
1763445351.316,0.000,-24.902,-11.719,-28.320,0.000
1763445351.320,0.000,-21.484,-8.789,-34.668,0.000
1763445351.324,0.000,-25.391,-11.719,-35.645,0.000
1763445351.327,0.000,-31.250,-18.066,-30.762,0.000
1763445351.331,0.000,-24.902,-19.043,-23.926,0.000
1763445351.335,-28.809,-21.973,-5.859,-30.273,0.000
1763445351.339,-48.340,-20.508,4.395,-33.691,0.000
1763445351.343,-46.387,-11.719,2.930,-28.809,0.000
1763445351.347,-36.621,-18.066,-4.395,-26.367,0.000
1763445351.351,-26.855,-23.438,-8.301,-24.902,0.000
1763445351.355,-39.062,-17.090,-10.254,-29.297,0.000
1763445351.359,-52.734,-16.113,-14.160,-36.133,0.000
1763445351.363,-41.504,-16.602,-13.184,-25.391,0.000
1763445351.366,-40.039,-23.438,-14.648,-18.555,0.000
1763445351.370,-22.949,-23.926,-12.207,-29.785,0.000
1763445351.374,-9.277,-15.625,-6.836,-27.344,0.000
1763445351.378,-21.484,-13.672,-4.395,-27.344,0.000
1763445351.382,0.000,-15.137,-0.488,-32.715,0.000
1763445351.386,0.000,-13.672,-1.465,-29.297,0.000
1763445351.390,0.000,-12.207,-5.859,-24.414,0.000
1763445351.394,0.000,-12.207,-5.371,-20.508,0.000
1763445351.398,0.000,-11.719,-6.836,-23.438,0.000
1763445351.402,0.000,-10.254,-9.277,-16.113,0.000
1763445351.406,0.000,-12.207,-15.137,-24.414,0.000
1763445351.409,0.000,-16.113,-23.438,-35.645,0.000
1763445351.413,0.000,-16.602,-33.691,-31.250,0.000
1763445351.417,0.000,-15.625,-22.461,-20.508,0.000
1763445351.421,0.000,-14.160,-5.859,-9.277,0.000
1763445351.425,0.000,-12.695,-7.324,-18.555,0.000
1763445351.429,-49.805,-9.766,-5.371,-27.832,0.000
1763445351.433,-39.551,-13.672,-3.906,-30.273,0.000
1763445351.437,-3.418,-22.949,-10.254,-31.250,0.000
1763445351.441,9.277,-22.949,-15.625,-27.832,0.000
1763445351.445,-1.465,-14.160,-14.160,-24.414,0.000
1763445351.448,-21.484,-16.113,-16.113,-21.973,0.000
1763445351.452,-53.711,-15.137,-15.137,-21.973,0.000
1763445351.456,-57.617,-10.254,-7.324,-20.996,0.000
1763445351.460,-26.855,-15.137,-8.789,-18.066,0.000
1763445351.464,4.395,-15.137,-12.207,-14.160,0.000
1763445351.468,-4.395,-14.648,-10.742,-7.324,0.000
1763445351.472,-20.508,-20.020,-13.672,-16.113,0.000
1763445351.476,0.000,-20.508,-12.695,-28.809,0.000
1763445351.480,0.000,-20.020,-13.184,-32.715,0.000
1763445351.484,0.000,-16.602,-17.090,-22.949,0.000
1763445351.488,0.000,-18.066,-13.672,-20.996,0.000
1763445351.491,0.000,-23.926,-11.230,-26.367,0.000
1763445351.495,0.000,-20.508,-11.230,-17.578,0.000
1763445351.499,0.000,-19.043,-17.578,-18.555,0.000
1763445351.503,0.000,-25.391,-25.879,-17.578,0.000
1763445351.507,0.000,-20.020,-22.461,-5.371,0.000
1763445351.511,0.000,-17.090,-9.277,-4.395,0.000
1763445351.515,0.000,-21.973,-3.418,-14.160,0.000
1763445351.519,0.000,-19.531,-3.418,-24.414,0.000
1763445351.523,-14.160,-20.020,-6.836,-37.598,0.000
1763445351.527,-20.996,-22.949,-14.160,-40.527,0.000
1763445351.530,-17.578,-18.555,-16.602,-27.832,0.000
1763445351.534,-21.973,-19.531,-13.184,-19.531,0.000
1763445351.538,-38.086,-21.973,-8.789,-18.066,0.000
1763445351.542,-20.508,-15.625,-11.719,-16.113,0.000
1763445351.546,-25.879,-24.414,-19.531,-19.043,0.000
1763445351.550,-51.270,-37.109,-22.461,-27.344,0.000
1763445351.554,-56.641,-21.484,-21.484,-18.555,0.000
1763445351.558,-51.270,-15.625,-19.043,-6.836,0.000
1763445351.562,-50.781,-20.508,-20.020,-17.090,0.000
1763445351.566,-41.504,-14.648,-22.461,-24.414,0.000
1763445351.570,-27.344,-12.207,-20.996,-21.973,0.000
1763445351.573,-15.625,-11.719,-20.508,-22.949,0.000
1763445351.577,-27.832,-10.742,-16.113,-24.414,0.000
1763445351.581,-56.641,-15.137,-16.602,-29.785,0.000
1763445351.585,-32.715,-18.555,-19.531,-28.320,0.000
1763445351.589,-23.926,-18.555,-19.043,-26.367,0.000
1763445351.593,-31.250,-23.926,-21.484,-26.855,0.000
1763445351.597,-8.789,-24.902,-21.484,-20.020,0.000
1763445351.601,2.930,-20.996,-17.090,-13.184,0.000
1763445351.605,-9.766,-19.531,-14.648,-21.973,0.000
1763445351.609,-21.973,-21.484,-13.672,-19.043,0.000
1763445351.612,-24.414,-21.484,-17.090,-10.254,0.000
1763445351.616,-39.062,-13.184,-16.113,-13.672,0.000
1763445351.620,-48.340,-9.766,-10.742,-13.672,0.000
1763445351.624,-47.852,-11.230,-12.695,-9.277,0.000
1763445351.628,-28.320,-9.766,-15.137,-7.812,0.000
1763445351.632,9.766,-9.277,-13.672,-16.113,0.000
1763445351.636,11.719,-11.719,-15.625,-17.578,0.000
1763445351.640,-12.207,-10.742,-18.555,-9.277,0.000
1763445351.644,-10.254,-8.789,-9.277,-3.418,0.000
1763445351.648,-11.719,-12.207,-1.953,-6.348,0.000
1763445351.652,-22.949,-15.137,-5.371,-14.160,0.000
1763445351.655,-21.484,-17.090,-8.301,-5.859,0.000
1763445351.659,-38.086,-22.949,-12.207,-1.953,0.000
1763445351.663,0.000,-18.066,0.000,0.000,0.000
1763445351.667,0.000,-11.230,0.000,0.000,0.000
1763445351.671,0.000,-10.254,0.000,0.000,0.000
1763445351.675,0.000,-10.742,0.000,0.000,0.000
1763445351.679,0.000,-15.137,0.000,0.000,0.000
1763445351.683,0.000,-16.113,0.000,0.000,0.000
1763445351.687,0.000,-17.090,0.000,0.000,0.000
1763445351.691,0.000,-12.695,0.000,0.000,0.000
1763445351.694,0.000,-13.184,0.000,0.000,0.000
1763445351.698,0.000,-17.090,0.000,0.000,0.000
1763445351.702,0.000,-16.602,0.000,0.000,0.000
1763445351.706,0.000,-22.461,0.000,0.000,0.000
1763445351.710,-17.090,-24.414,-13.184,-12.207,0.000
1763445351.714,-24.902,-16.113,-16.113,-11.719,0.000
1763445351.718,-18.066,-15.137,-21.973,-19.043,0.000
1763445351.722,-42.969,-18.555,-23.438,-10.254,0.000
1763445351.726,-32.715,-9.766,-18.066,2.441,0.000
1763445351.730,0.000,-10.742,-9.277,-4.395,0.000
1763445351.734,-2.930,-18.555,-6.348,-3.906,0.000
1763445351.737,-2.441,-16.602,-10.742,-13.184,0.000
1763445351.741,0.977,-11.230,-18.555,-24.902,0.000
1763445351.745,-15.137,-12.207,-19.531,-15.137,0.000
1763445351.749,-17.090,-16.113,-11.719,-4.395,0.000
1763445351.753,1.465,-17.578,-11.719,3.906,0.000
1763445351.757,-17.090,-13.184,-13.184,-5.371,0.000
1763445351.761,-39.551,-13.672,-7.812,-15.625,0.000
1763445351.765,-16.113,-22.461,-8.789,-13.184,0.000
1763445351.769,-9.766,-24.902,-15.625,-12.695,0.000
1763445351.773,-24.902,-22.949,-17.578,-15.137,0.000
1763445351.777,-31.738,-23.926,-19.531,-30.273,0.000
1763445351.780,-19.531,-21.484,-18.555,-27.344,0.000
1763445351.784,-58.105,-18.066,-17.578,-11.719,0.000
1763445351.788,-85.449,-18.066,-22.461,-8.789,0.000
1763445351.792,-10.254,-15.625,-14.648,-11.719,0.000
1763445351.796,39.551,-12.207,-6.348,-19.531,0.000
1763445351.800,20.996,-18.555,-7.324,-28.809,0.000
1763445351.804,-0.977,-22.461,-7.812,-27.344,0.000
1763445351.808,-13.672,-18.066,-5.859,-13.184,0.000
1763445351.812,-26.367,-15.137,-5.859,-2.930,0.000
1763445351.816,-44.434,-19.043,-8.789,-6.348,0.000
1763445351.819,-50.781,-19.531,-6.348,-4.883,0.000
1763445351.823,-41.016,-20.996,-0.977,5.371,0.000
1763445351.827,-23.926,-24.414,-1.465,-0.488,0.000
1763445351.831,0.488,-26.367,-11.719,-16.113,0.000
1763445351.835,9.277,-22.949,-13.672,-14.648,0.000
1763445351.839,1.465,-20.996,-11.719,-10.742,0.000
1763445351.843,-13.672,-22.949,-11.230,-20.508,0.000
1763445351.847,-16.602,-11.719,-18.555,-16.602,0.000
1763445351.851,-18.555,-13.184,0.000,-13.672,0.000
1763445351.855,-26.855,-18.066,0.000,-26.367,0.000
1763445351.859,-44.922,-16.602,0.000,-25.879,0.000
1763445351.862,-60.547,-21.484,0.000,-20.996,0.000
1763445351.866,-56.641,-20.508,0.000,-20.508,0.000
1763445351.870,-55.176,-19.531,0.000,-19.043,0.000
1763445351.874,-48.828,-26.855,0.000,-20.996,0.000
1763445351.878,-27.832,-31.738,0.000,-22.461,0.000
1763445351.882,-28.320,-25.879,0.000,-13.184,0.000
1763445351.886,-4.883,-12.695,0.000,-0.488,0.000
1763445351.890,0.488,-7.324,0.000,-8.789,0.000
1763445351.894,-12.695,-14.648,0.000,-24.902,0.000
1763445351.898,0.000,-21.484,-9.766,-24.414,0.000
1763445351.902,0.000,-19.043,-10.742,-18.066,0.000
1763445351.905,0.000,-19.043,-20.508,-13.672,0.000
1763445351.909,0.000,-19.531,-20.996,-12.695,0.000
1763445351.913,0.000,-18.066,-15.625,-25.391,0.000
1763445351.917,0.000,-21.973,-15.625,-28.320,0.000
1763445351.921,0.000,-24.414,-10.254,-7.812,0.000
1763445351.925,0.000,-25.391,-16.602,-7.324,0.000
1763445351.929,0.000,-22.461,-21.484,-19.531,0.000
1763445351.933,0.000,-15.625,-15.625,-20.020,0.000
1763445351.937,0.000,-16.113,-15.137,-11.719,0.000
1763445351.941,0.000,-18.555,-20.020,-9.766,0.000
1763445351.944,-27.832,-13.184,-20.508,-12.207,0.000
1763445351.948,-9.277,-10.254,-13.184,-11.230,0.000
1763445351.952,-33.203,-16.113,-18.066,-12.207,0.000
1763445351.956,-34.668,-15.137,-24.414,-14.160,0.000
1763445351.960,0.488,-8.301,-25.391,-9.277,0.000
1763445351.964,4.883,-12.207,-20.996,-5.859,0.000
1763445351.968,-1.465,-16.113,-17.578,-4.395,0.000
1763445351.972,-9.766,-17.090,-15.625,3.418,0.000
1763445351.976,-35.645,-21.973,-12.695,0.977,0.000
1763445351.980,-58.105,-18.555,-11.230,-3.418,0.000
1763445351.984,-41.016,-12.207,-15.137,-11.230,0.000
1763445351.987,-20.508,-10.254,-12.695,-5.371,0.000
1763445351.991,0.000,-13.184,-9.766,-4.883,0.000
1763445351.995,0.000,-18.066,-13.672,-15.625,0.000
1763445351.999,0.000,-15.625,-12.207,-5.371,0.000
1763445352.003,0.000,-5.371,-11.719,-5.859,0.000
1763445352.007,0.000,-5.859,-14.160,-10.742,0.000
1763445352.011,0.000,-9.277,-10.742,-4.883,0.000
1763445352.015,0.000,-14.648,-10.254,-4.883,0.000
1763445352.019,0.000,-14.648,-14.160,-4.883,0.000
1763445352.023,0.000,-10.254,-17.578,-11.719,0.000
1763445352.026,0.000,-12.207,-22.461,-21.973,0.000
1763445352.030,0.000,-12.695,-16.602,-22.949,0.000
1763445352.034,0.000,-14.160,-8.789,-20.996,0.000
1763445352.038,-30.273,-15.625,0.000,-23.438,0.000
1763445352.042,-43.945,-19.531,0.000,-34.668,0.000
1763445352.046,-36.621,-19.043,0.000,-29.785,0.000
1763445352.050,-23.926,-13.184,0.000,-17.090,0.000
1763445352.054,-42.969,-18.066,0.000,-24.414,0.000
1763445352.058,-57.129,-19.043,0.000,-25.391,0.000
1763445352.062,-36.621,-16.113,0.000,-23.926,0.000
1763445352.066,-12.207,-16.113,0.000,-28.320,0.000
1763445352.069,-19.043,-17.090,0.000,-25.879,0.000
1763445352.073,-34.180,-21.484,0.000,-24.414,0.000
1763445352.077,-34.180,-18.555,0.000,-26.855,0.000
1763445352.081,-27.832,-14.160,0.000,-22.949,0.000
1763445352.085,-30.273,-15.625,-10.254,-20.996,0.000
1763445352.089,-34.180,-14.160,-11.719,-19.531,0.000
1763445352.093,-21.484,-13.184,-11.719,-18.555,0.000
1763445352.097,-15.625,-13.672,-19.043,-30.273,0.000
1763445352.101,-33.691,-15.137,-19.531,-33.691,0.000
1763445352.105,-51.270,-13.672,-11.719,-33.691,0.000
1763445352.109,-41.016,-13.672,-17.578,-37.109,0.000
1763445352.112,-38.574,-14.648,-14.648,-35.156,0.000
1763445352.116,-35.645,-16.113,-3.906,-29.785,0.000
1763445352.120,-41.992,-20.508,-4.395,-22.949,0.000
1763445352.124,-51.758,-19.531,-5.859,-23.926,0.000
1763445352.128,-45.898,-19.531,-16.602,-35.156,0.000
1763445352.132,0.000,-20.020,0.000,0.000,0.000
1763445352.136,0.000,-22.461,0.000,0.000,0.000
1763445352.140,0.000,-18.066,0.000,0.000,0.000
1763445352.144,0.000,-13.184,0.000,0.000,0.000
1763445352.148,0.000,-12.695,0.000,0.000,0.000
1763445352.152,0.000,-12.695,0.000,0.000,0.000
1763445352.155,0.000,-16.113,0.000,0.000,0.000
1763445352.159,0.000,-12.695,0.000,0.000,0.000
1763445352.163,0.000,-9.277,0.000,0.000,0.000
1763445352.167,0.000,-15.137,0.000,0.000,0.000
1763445352.171,0.000,-13.672,0.000,0.000,0.000
1763445352.175,0.000,-20.020,0.000,0.000,0.000
1763445352.179,-57.129,-26.855,-57.129,-42.480,0.000
1763445352.183,-46.387,-20.996,-39.551,-47.852,0.000
1763445352.187,-58.105,-21.484,-13.672,-48.340,0.000
1763445352.191,-57.617,-26.367,25.391,-41.992,0.000
1763445352.194,-62.012,-30.273,38.574,-42.480,0.000
1763445352.198,-60.547,-22.461,15.137,-47.363,0.000
1763445352.202,-49.805,-18.066,0.488,-42.480,0.000
1763445352.206,-53.711,-32.227,-2.930,-38.574,0.000
1763445352.210,-60.547,-37.598,-4.395,-29.785,0.000
1763445352.214,-76.172,-38.086,-13.184,-31.250,0.000
1763445352.218,-85.449,-40.039,-28.320,-42.480,0.000
1763445352.222,-89.844,-35.156,-34.668,-43.457,0.000
1763445352.226,-84.473,-30.762,-34.668,-63.965,0.000
1763445352.230,-57.129,-30.762,-33.691,-64.941,0.000
1763445352.234,-57.617,-32.227,-39.062,-64.941,0.000
1763445352.237,-61.523,-29.297,-41.504,-63.477,0.000
1763445352.241,-38.574,-28.809,-46.387,-62.500,0.000
1763445352.245,-46.387,-26.855,-46.387,-51.758,0.000
1763445352.249,-69.824,-26.367,-42.480,-55.664,0.000
1763445352.253,-79.590,-29.785,-42.969,-62.012,0.000
1763445352.257,-79.590,-25.879,-37.109,-59.570,0.000
1763445352.261,-84.473,-21.973,-44.434,-59.082,0.000
1763445352.265,-79.102,-23.926,-49.316,-57.617,0.000
1763445352.269,-76.660,-32.715,-40.039,-58.105,0.000
1763445352.273,-76.172,-38.086,-40.039,-48.828,0.000
1763445352.276,-60.547,-32.715,-30.273,-52.246,0.000
1763445352.280,-60.059,-33.203,-14.160,-58.594,0.000
1763445352.284,-73.730,-32.715,-15.137,-58.105,0.000
1763445352.288,-92.773,-25.391,-7.324,-61.523,0.000
1763445352.292,-104.492,-29.297,-5.371,-62.012,0.000
1763445352.296,-82.520,-30.273,-10.254,-68.359,0.000
1763445352.300,-26.855,-26.367,-7.324,-62.012,0.000
1763445352.304,4.395,-23.926,-7.324,-50.781,0.000
1763445352.308,2.930,-21.973,-6.348,-53.223,0.000
1763445352.312,-31.250,-22.949,1.953,-58.105,0.000
1763445352.316,-58.594,-21.973,7.324,-57.129,0.000
1763445352.319,-74.219,-24.902,-2.441,-60.547,0.000
1763445352.323,-73.242,-26.367,9.277,-59.570,0.000
1763445352.327,-45.898,-23.926,12.695,-47.852,0.000
1763445352.331,-72.266,-23.926,-11.719,-52.246,0.000
1763445352.335,-90.820,-29.785,-8.789,-63.965,0.000
1763445352.339,-55.664,-31.738,9.766,-63.477,0.000
1763445352.343,-56.641,-40.527,22.461,-61.035,0.000
1763445352.347,-57.617,-36.133,31.738,-62.012,0.000
1763445352.351,-51.758,-24.414,28.320,-58.105,0.000
1763445352.355,-66.406,-24.902,13.672,-69.824,0.000
1763445352.358,-88.379,-29.297,-0.488,-81.055,0.000
1763445352.362,-93.262,-29.785,0.977,-64.941,0.000
1763445352.366,-76.660,-20.996,7.324,-60.059,0.000
1763445352.370,-63.477,-22.461,11.230,-64.941,0.000
1763445352.374,-82.031,-24.902,6.836,-77.148,0.000
1763445352.378,-91.309,-24.902,-11.719,-119.629,0.000
1763445352.382,-59.082,-25.879,0.977,-118.652,0.000
1763445352.386,-44.922,-31.250,17.090,-76.172,0.000
1763445352.390,-48.340,-36.133,11.230,-69.824,0.000
1763445352.394,-63.965,-35.645,14.648,-64.453,0.000
1763445352.398,-82.031,-31.738,14.648,-70.312,0.000
1763445352.401,-87.891,-31.250,16.113,-69.336,0.000
1763445352.405,-112.305,-34.180,9.766,-65.918,0.000
1763445352.409,-105.957,-31.738,-2.441,-84.961,0.000
1763445352.413,-73.730,-25.391,3.906,-80.566,0.000
1763445352.417,-57.617,-25.879,4.883,-65.430,0.000
1763445352.421,-40.039,-24.902,5.371,-75.195,0.000
1763445352.425,-61.035,-22.461,10.254,-72.754,0.000
1763445352.429,-59.570,-18.066,14.160,-60.547,0.000
1763445352.433,-54.688,-24.902,30.273,-88.867,0.000
1763445352.437,-81.055,-24.414,22.461,-109.863,0.000
1763445352.441,-69.336,-20.996,13.184,-62.988,0.000
1763445352.444,-58.105,-36.133,26.367,-64.941,0.000
1763445352.448,-42.969,-41.504,31.250,-78.613,0.000
1763445352.452,-33.203,-31.250,30.762,-101.562,0.000
1763445352.456,-61.035,-26.367,27.832,-91.797,0.000
1763445352.460,-46.875,-19.531,27.832,-61.035,0.000
1763445352.464,3.418,-7.812,19.531,-99.609,0.000
1763445352.468,-6.836,-7.812,24.414,-64.453,0.000
1763445352.472,-41.992,-8.789,37.598,-13.672,0.000
1763445352.476,-42.480,-8.301,35.645,-38.086,0.000
1763445352.480,-53.223,-9.277,31.738,-52.734,0.000
1763445352.483,-98.145,-14.160,28.320,-63.477,0.000
1763445352.487,-72.754,-14.160,21.973,-51.758,0.000
1763445352.491,-37.598,-15.137,18.066,-44.434,0.000
1763445352.495,-28.809,-19.531,20.508,-46.387,0.000
1763445352.499,-22.949,-16.113,17.090,-53.711,0.000
1763445352.503,-12.695,-17.090,10.254,-59.570,0.000
1763445352.507,-24.414,-23.438,10.742,-69.336,0.000
1763445352.511,-55.176,-20.020,12.695,-77.148,0.000
1763445352.515,-52.246,-18.555,20.996,-41.016,0.000
1763445352.519,-41.992,-26.367,22.461,-57.617,0.000
1763445352.523,-57.129,-28.809,24.902,-73.730,0.000
1763445352.526,-68.848,-23.438,32.227,-52.734,0.000
1763445352.530,-78.125,-25.391,24.902,-44.434,0.000
1763445352.534,-82.031,-31.250,19.043,-48.340,0.000
1763445352.538,-59.570,-31.250,19.043,-46.875,0.000
1763445352.542,-33.691,-25.391,18.066,-36.621,0.000
1763445352.546,-20.996,-21.973,12.695,-25.879,0.000
1763445352.550,-16.602,-24.902,7.812,-32.227,0.000
1763445352.554,-8.301,-21.484,4.395,-39.062,0.000
1763445352.558,-24.414,-19.531,-1.465,-24.414,0.000
1763445352.562,-59.570,-19.531,17.090,-9.277,0.000
1763445352.566,-84.961,-10.742,31.250,-9.277,0.000
1763445352.569,-52.246,-19.043,13.672,-14.160,0.000
1763445352.573,-6.348,-36.133,4.395,-14.160,0.000
1763445352.577,6.836,-15.625,14.648,-19.531,0.000
1763445352.581,-12.207,-16.113,15.625,-24.414,0.000
1763445352.585,-41.016,-44.922,8.789,-15.625,0.000
1763445352.589,-44.434,-31.738,6.836,-4.883,0.000
1763445352.593,-70.801,-16.602,11.719,18.555,0.000
1763445352.597,-76.660,-12.695,7.324,-21.484,0.000
1763445352.601,-23.438,-12.207,-0.977,-20.020,0.000
1763445352.605,-12.695,-19.531,2.930,1.953,0.000
1763445352.609,-30.273,-17.090,7.324,1.465,0.000
1763445352.612,-29.297,-24.902,-0.977,13.184,0.000
1763445352.616,-20.508,-31.738,-16.602,31.738,0.000
1763445352.620,-20.508,-37.109,-5.859,33.203,0.000
1763445352.624,-42.969,-49.316,7.324,15.137,0.000
1763445352.628,-51.270,-37.109,21.484,26.367,0.000
1763445352.632,-40.527,-16.602,35.156,30.762,0.000
1763445352.636,-58.105,-2.441,41.992,49.316,0.000
1763445352.640,-115.723,-35.645,20.020,37.598,0.000
1763445352.644,-79.102,-43.457,-4.395,22.461,0.000
1763445352.648,-22.949,-26.367,0.488,44.434,0.000
1763445352.651,-29.297,-35.645,9.277,27.344,0.000
1763445352.655,-38.086,-41.504,11.230,26.855,0.000
1763445352.659,-30.273,-36.621,-12.695,22.949,0.000
1763445352.663,-19.043,-34.180,-23.926,20.020,0.000
1763445352.667,-50.781,-37.598,-8.789,73.242,0.000
1763445352.671,-71.289,-37.109,-3.906,78.125,0.000
1763445352.675,-64.941,-35.645,-8.789,67.871,0.000
1763445352.679,-53.223,-35.645,-16.113,71.289,0.000
1763445352.683,-30.273,-42.969,-21.973,67.383,0.000
1763445352.687,-28.320,-45.898,-18.066,44.434,0.000
1763445352.691,-48.340,-48.828,-19.531,34.668,0.000
1763445352.694,-53.711,-42.969,-26.367,54.199,0.000
1763445352.698,-54.199,-41.992,-20.508,62.988,0.000
1763445352.702,-74.707,-45.410,-26.855,61.035,0.000
1763445352.706,-66.406,-41.504,-30.762,27.832,0.000
1763445352.710,-45.410,-37.109,-20.508,37.598,0.000
1763445352.714,-52.734,-30.762,-18.555,71.289,0.000
1763445352.718,-51.758,-24.414,-9.766,59.082,0.000
1763445352.722,-41.992,-18.555,-22.461,36.133,0.000
1763445352.726,-52.734,-25.879,-29.785,44.434,0.000
1763445352.730,-52.246,-38.086,-19.043,42.969,0.000
1763445352.733,-42.480,-48.340,-20.508,37.598,0.000
1763445352.737,-51.270,-48.828,-16.602,41.504,0.000
1763445352.741,-53.711,-42.480,-24.902,25.879,0.000
1763445352.745,-58.105,-35.645,-25.879,27.832,0.000
1763445352.749,-69.824,-28.809,-21.484,27.832,0.000
1763445352.753,-67.871,-31.250,-21.973,7.812,0.000
1763445352.757,-57.129,-38.086,-14.160,33.203,0.000
1763445352.761,-78.613,-38.086,-11.719,45.898,0.000
1763445352.765,-79.102,-31.738,-13.672,22.949,0.000
1763445352.769,-57.129,-26.855,-9.277,39.062,0.000
1763445352.773,-34.180,-15.625,-11.230,45.898,0.000
1763445352.776,-16.113,-10.254,-6.836,62.012,0.000
1763445352.780,-18.066,-14.648,-4.883,55.664,0.000
1763445352.784,-47.852,-21.484,-5.859,42.969,0.000
1763445352.788,-70.312,-21.973,-5.859,13.672,0.000
1763445352.792,-59.082,-23.438,-13.672,12.207,0.000
1763445352.796,-44.922,-26.855,-16.113,32.715,0.000
1763445352.800,-37.109,-29.785,-12.695,2.441,0.000
1763445352.804,-43.457,-33.203,-6.836,25.391,0.000
1763445352.808,-36.621,-30.762,-13.672,18.555,0.000
1763445352.812,-46.387,-24.414,-12.207,6.348,0.000
1763445352.815,-71.289,-17.578,-22.949,-43.457,0.000
1763445352.819,-68.848,-15.137,-22.949,-8.301,0.000
1763445352.823,-60.547,-21.484,-17.578,32.715,0.000
1763445352.827,-58.105,-20.996,-25.879,-41.992,0.000
1763445352.831,-52.734,-10.742,-17.578,20.020,0.000
1763445352.835,0.000,-12.207,-10.742,59.082,0.000
1763445352.839,0.000,-15.137,-16.113,20.996,0.000
1763445352.843,0.000,-7.812,-26.855,34.668,0.000
1763445352.847,0.000,-10.742,-19.043,63.477,0.000
1763445352.851,0.000,-11.719,-20.020,-31.738,0.000
1763445352.855,0.000,-13.184,-11.230,-18.066,0.000
1763445352.858,0.000,-19.043,13.184,74.219,0.000
1763445352.862,0.000,-15.625,4.395,-11.719,0.000
1763445352.866,0.000,-10.742,1.465,45.898,0.000
1763445352.870,0.000,-8.301,6.836,78.613,0.000
1763445352.874,0.000,-5.859,-3.418,49.316,0.000
1763445352.878,0.000,-1.953,-0.977,65.430,0.000
1763445352.882,-46.875,-0.977,3.906,0.000,0.000
1763445352.886,-26.855,-5.371,-5.371,0.000,0.000
1763445352.890,-12.207,-4.883,-16.602,0.000,0.000
1763445352.894,-27.344,-8.301,-11.719,0.000,0.000
1763445352.898,-50.293,-6.348,0.488,0.000,0.000
1763445352.901,-43.457,6.348,-17.578,0.000,0.000
1763445352.905,-49.805,11.719,-22.461,0.000,0.000
1763445352.909,-60.059,-0.488,-7.324,0.000,0.000
1763445352.913,-43.457,-15.137,1.953,0.000,0.000
1763445352.917,-32.227,-4.883,-4.883,0.000,0.000
1763445352.921,-50.293,5.859,-20.508,0.000,0.000
1763445352.925,-46.875,-4.883,-10.742,0.000,0.000
1763445352.929,-39.551,-6.348,-4.395,105.957,0.000
1763445352.933,-31.738,1.465,-11.719,60.547,0.000
1763445352.937,-24.902,-1.953,-19.043,51.758,0.000
1763445352.941,-32.715,3.418,-17.578,73.242,0.000
1763445352.944,-53.711,-0.488,-17.090,82.520,0.000
1763445352.948,-62.988,-13.184,-9.277,76.660,0.000
1763445352.952,-39.551,-5.859,-11.719,63.477,0.000
1763445352.956,-11.230,-3.418,-20.996,78.125,0.000
1763445352.960,3.418,-6.348,-16.113,87.891,0.000
1763445352.964,-2.441,1.465,-7.812,88.867,0.000
1763445352.968,-7.324,5.371,-7.812,81.055,0.000
1763445352.972,-31.738,7.812,-8.301,57.129,0.000
1763445352.976,0.000,-0.977,0.000,79.102,0.000
1763445352.980,0.000,-8.301,0.000,86.426,0.000
1763445352.983,0.000,-4.883,0.000,79.590,0.000
1763445352.987,0.000,-1.953,0.000,64.453,0.000
1763445352.991,0.000,3.418,0.000,17.578,0.000
1763445352.995,0.000,0.977,0.000,32.715,0.000
1763445352.999,0.000,-4.395,0.000,92.773,0.000
1763445353.003,0.000,-5.371,0.000,60.547,0.000
1763445353.007,0.000,2.930,0.000,49.316,0.000
1763445353.011,0.000,12.207,0.000,70.312,0.000
1763445353.015,0.000,10.742,0.000,42.969,0.000
1763445353.019,0.000,4.883,0.000,40.039,0.000
1763445353.023,-33.203,0.000,-11.230,60.547,0.000
1763445353.026,-29.297,-4.395,-6.348,58.594,0.000
1763445353.030,-31.738,-4.883,-8.301,20.508,0.000
1763445353.034,-18.066,1.953,-4.883,29.785,0.000
1763445353.038,-20.996,4.395,-4.395,41.504,0.000
1763445353.042,-21.484,10.254,-10.254,27.344,0.000
1763445353.046,-20.508,5.371,-13.672,43.457,0.000
1763445353.050,-19.531,-4.883,-15.625,12.695,0.000
1763445353.054,-16.602,1.465,-8.789,28.809,0.000
1763445353.058,-44.434,9.766,-11.230,41.504,0.000
1763445353.062,-38.574,7.812,-7.812,16.113,0.000
1763445353.065,-24.902,9.277,-3.418,39.062,0.000
1763445353.069,-35.645,13.184,-10.254,24.414,0.000
1763445353.073,-34.180,7.812,-10.742,18.555,0.000
1763445353.077,-25.391,1.953,-10.254,30.762,0.000
1763445353.081,-9.277,3.906,-17.090,7.812,0.000
1763445353.085,-22.461,3.418,-14.160,9.766,0.000
1763445353.089,-40.527,2.441,-9.277,8.301,0.000
1763445353.093,-24.414,4.395,-13.672,-1.953,0.000
1763445353.097,-24.414,6.836,-19.531,-13.184,0.000
1763445353.101,-33.203,-0.977,-13.672,0.488,0.000
1763445353.105,-24.414,-2.441,-8.301,14.648,0.000
1763445353.108,-32.227,9.766,-10.742,-2.930,0.000
1763445353.112,-41.016,7.812,-12.695,19.043,0.000
1763445353.116,0.000,1.953,-15.137,10.742,0.000
1763445353.120,0.000,11.230,-13.184,-20.508,0.000
1763445353.124,0.000,6.836,-10.742,4.395,0.000
1763445353.128,0.000,-1.465,-13.672,4.883,0.000
1763445353.132,0.000,5.859,-26.855,-13.672,0.000
1763445353.136,0.000,3.906,-20.996,44.434,0.000
1763445353.140,0.000,-3.906,-7.812,34.180,0.000
1763445353.144,0.000,4.395,-7.812,0.000,0.000
1763445353.147,0.000,9.766,-8.301,17.578,0.000
1763445353.151,0.000,5.859,-9.766,25.879,0.000
1763445353.155,0.000,9.277,-18.555,-3.418,0.000
1763445353.159,0.000,6.836,-26.855,-15.137,0.000
1763445353.163,-16.113,5.859,-23.926,-9.766,0.000
1763445353.167,-35.156,8.789,-20.020,-22.949,0.000
1763445353.171,-36.133,3.906,-19.531,-33.203,0.000
1763445353.175,-17.578,3.906,-15.625,-4.395,0.000
1763445353.179,-9.766,4.883,-9.766,4.395,0.000
1763445353.183,-6.836,6.348,-7.324,4.883,0.000
1763445353.187,-24.414,9.277,-15.137,-15.625,0.000
1763445353.190,-64.941,4.395,-21.484,-9.766,0.000
1763445353.194,-62.988,1.465,-19.531,-12.207,0.000
1763445353.198,-29.297,0.977,-18.066,-27.832,0.000
1763445353.202,-6.348,0.000,-13.672,13.184,0.000
1763445353.206,7.812,0.488,-15.625,17.090,0.000
1763445353.210,8.789,3.418,-21.973,-3.906,0.000
1763445353.214,-1.953,3.906,-16.602,-15.625,0.000
1763445353.218,-22.461,7.812,-18.555,-19.043,0.000
1763445353.222,-57.129,10.254,-16.602,-36.133,0.000
1763445353.226,-64.941,3.418,-8.301,-15.625,0.000
1763445353.230,-34.668,4.395,-11.230,19.531,0.000
1763445353.233,-6.836,7.324,-22.461,8.301,0.000
1763445353.237,3.906,10.254,-28.320,-8.301,0.000
1763445353.241,-11.230,0.000,-20.996,-13.184,0.000
1763445353.245,-17.090,-2.441,-11.230,0.000,0.000
1763445353.249,-23.438,4.395,-14.648,-14.160,0.000
1763445353.253,-33.203,5.371,-29.785,-46.387,0.000
1763445353.257,-19.043,3.418,-20.508,-4.883,0.000
1763445353.261,-13.184,-5.859,-6.836,62.500,0.000
1763445353.265,-26.855,-5.371,-14.160,-30.762,0.000
1763445353.269,-33.691,-0.488,-25.879,-56.152,0.000
1763445353.273,-17.090,-5.859,-24.902,25.879,0.000
1763445353.276,-30.762,-6.348,-27.832,16.602,0.000
1763445353.280,-46.387,-1.953,-29.785,-6.348,0.000
1763445353.284,-33.691,-2.441,-24.902,12.695,0.000
1763445353.288,-20.508,-12.207,-31.250,-10.254,0.000
1763445353.292,-12.695,-8.789,-34.668,-21.973,0.000
1763445353.296,-25.879,-7.324,-27.832,-2.441,0.000
1763445353.300,-24.902,-16.602,-26.855,-19.531,0.000
1763445353.304,-14.160,-17.578,-29.785,-26.367,0.000
1763445353.308,-27.344,-12.207,-27.832,-17.578,0.000
1763445353.312,-37.598,-13.184,-25.879,0.000,0.000
1763445353.316,-42.969,-11.230,-26.367,13.672,0.000
1763445353.319,-57.129,-10.742,-36.133,-10.742,0.000
1763445353.323,-75.684,-10.254,-36.133,-23.438,0.000
1763445353.327,-68.848,-4.395,-31.250,-19.043,0.000
1763445353.331,-43.457,-10.742,-30.762,-38.086,0.000
1763445353.335,-20.020,-16.602,-26.367,-23.438,0.000
1763445353.339,-21.484,-15.625,-23.926,0.000,0.000
1763445353.343,-44.922,-16.602,-31.738,-21.484,0.000
1763445353.347,-31.738,-17.090,-33.691,-20.996,0.000
1763445353.351,-33.691,-18.555,-31.250,-24.414,0.000
1763445353.355,-42.969,-13.672,-26.367,-25.391,0.000
1763445353.358,-29.785,-9.766,-30.762,-32.715,0.000
1763445353.362,-23.438,-10.742,-40.039,-35.156,0.000
1763445353.366,-38.086,-5.371,-31.738,-1.465,0.000
1763445353.370,-44.434,-11.230,-24.902,-6.836,0.000
1763445353.374,-47.852,-21.973,-24.902,-34.668,0.000
1763445353.378,-74.219,-21.484,-26.367,-28.320,0.000
1763445353.382,-79.102,-14.160,-22.949,-7.812,0.000
1763445353.386,-55.664,-16.113,-23.438,-15.137,0.000
1763445353.390,-36.133,-15.625,-25.879,-14.648,0.000
1763445353.394,-33.691,-11.230,-34.668,-34.180,0.000
1763445353.398,0.000,-12.207,-38.574,-58.105,0.000
1763445353.401,0.000,-7.324,-41.992,-83.008,0.000
1763445353.405,0.000,-4.883,-32.227,-31.250,0.000
1763445353.409,0.000,-5.859,-17.578,17.578,0.000
1763445353.413,0.000,-11.719,-27.344,-11.719,0.000
1763445353.417,0.000,-10.254,-31.250,-36.133,0.000
1763445353.421,0.000,-2.930,-28.320,-23.926,0.000
1763445353.425,0.000,-2.930,-26.855,1.465,0.000
1763445353.429,0.000,-10.254,-31.250,-10.254,0.000
1763445353.433,0.000,-13.184,-39.551,-20.508,0.000
1763445353.437,0.000,-10.254,-45.898,-24.414,0.000
1763445353.440,0.000,-5.371,-47.363,-37.109,0.000
1763445353.444,-42.480,-0.977,-44.922,-40.039,0.000
1763445353.448,-25.879,-10.254,-41.504,-20.996,0.000
1763445353.452,-17.578,-15.137,-39.062,-34.668,0.000
1763445353.456,-44.434,-18.066,-43.945,-62.012,0.000
1763445353.460,-82.520,-19.531,-41.992,-41.016,0.000
1763445353.464,-65.918,-14.160,-38.086,-41.992,0.000
1763445353.468,-59.082,-18.066,-36.133,-32.715,0.000
1763445353.472,-49.316,-16.602,-36.133,-29.785,0.000
1763445353.476,-29.785,-11.230,-46.875,-32.227,0.000
1763445353.480,-42.969,-10.254,-53.223,-29.297,0.000
1763445353.483,-64.941,-18.555,-43.945,-44.922,0.000
1763445353.487,-55.176,-16.602,-31.738,-42.969,0.000
1763445353.491,-43.457,-11.230,-32.227,-45.410,0.000
1763445353.495,-52.734,-14.160,-37.109,-33.203,0.000
1763445353.499,-50.781,-16.602,-30.762,-37.598,0.000
1763445353.503,-60.059,-14.160,-32.715,-44.434,0.000
1763445353.507,-69.336,-16.602,-45.410,-42.969,0.000
1763445353.511,-57.129,-17.090,-44.434,-58.594,0.000
1763445353.515,-44.434,-22.461,-40.527,-55.176,0.000
1763445353.519,-56.152,-26.367,-41.504,-57.129,0.000
1763445353.523,-77.148,-20.508,-44.434,-82.520,0.000
1763445353.526,-64.453,-9.766,-37.598,-42.480,0.000
1763445353.530,-25.391,-12.207,-30.273,-20.020,0.000
1763445353.534,-19.531,-12.207,-47.363,-53.711,0.000
1763445353.538,0.000,-14.160,0.000,0.000,0.000
1763445353.542,0.000,-22.949,0.000,0.000,0.000
1763445353.546,0.000,-20.996,0.000,0.000,0.000
1763445353.550,0.000,-14.160,0.000,0.000,0.000
1763445353.554,0.000,-11.230,0.000,0.000,0.000
1763445353.558,0.000,-20.020,0.000,0.000,0.000
1763445353.562,0.000,-17.090,0.000,0.000,0.000
1763445353.565,0.000,-6.348,0.000,0.000,0.000
1763445353.569,0.000,-16.602,0.000,0.000,0.000
1763445353.573,0.000,-20.996,0.000,0.000,0.000
1763445353.577,0.000,-16.113,0.000,0.000,0.000
1763445353.581,0.000,-13.184,0.000,0.000,0.000
1763445353.585,-53.711,-9.766,-41.504,-18.066,0.000
1763445353.589,-59.082,-10.254,-42.969,-6.348,0.000
1763445353.593,-63.477,-15.137,-39.062,-1.465,0.000
1763445353.597,-69.824,-16.113,-34.668,-10.254,0.000
1763445353.601,-65.430,-7.324,-29.297,-23.926,0.000
1763445353.604,-52.246,-16.602,-33.203,-20.996,0.000
1763445353.608,-28.320,-24.902,-40.039,-28.320,0.000
1763445353.612,-39.551,-19.531,-35.156,-14.160,0.000
1763445353.616,-53.223,-25.391,-42.969,-41.016,0.000
1763445353.620,-41.016,-27.344,-38.086,-34.180,0.000
1763445353.624,-52.246,-21.484,-26.855,16.113,0.000
1763445353.628,-61.523,-17.090,-34.180,-12.695,0.000
1763445353.632,0.000,-17.090,0.000,0.000,0.000
1763445353.636,0.000,-21.484,0.000,0.000,0.000
1763445353.640,0.000,-17.090,0.000,0.000,0.000
1763445353.644,0.000,-12.695,0.000,0.000,0.000
1763445353.648,0.000,-11.230,0.000,0.000,0.000
1763445353.652,0.000,-8.301,0.000,0.000,0.000
1763445353.655,0.000,-9.277,0.000,0.000,0.000
1763445353.659,0.000,-13.672,0.000,0.000,0.000
1763445353.663,0.000,-17.578,0.000,0.000,0.000
1763445353.667,0.000,-14.648,0.000,0.000,0.000
1763445353.671,0.000,-10.742,0.000,0.000,0.000
1763445353.675,0.000,-14.160,0.000,0.000,0.000
1763445353.679,0.000,-24.902,0.000,0.000,0.000
1763445353.683,0.000,-20.996,0.000,0.000,0.000
1763445353.687,0.000,-6.836,0.000,0.000,0.000
1763445353.691,0.000,-9.277,0.000,0.000,0.000
1763445353.695,0.000,-7.324,0.000,0.000,0.000
1763445353.699,0.000,-12.207,0.000,0.000,0.000
1763445353.702,0.000,-15.625,0.000,0.000,0.000
1763445353.706,0.000,-13.184,0.000,0.000,0.000
1763445353.710,0.000,-16.113,0.000,0.000,0.000
1763445353.714,0.000,-19.531,0.000,0.000,0.000
1763445353.718,0.000,-18.066,0.000,0.000,0.000
1763445353.722,0.000,-8.789,0.000,0.000,0.000
1763445353.726,0.000,-11.230,0.000,0.000,0.000
1763445353.730,0.000,-10.742,0.000,0.000,0.000
1763445353.734,0.000,-7.324,0.000,0.000,0.000
1763445353.738,0.000,-8.301,0.000,0.000,0.000
1763445353.742,0.000,-10.742,0.000,0.000,0.000
1763445353.745,0.000,-8.301,0.000,0.000,0.000
1763445353.749,0.000,-8.301,0.000,0.000,0.000
1763445353.753,0.000,-13.672,0.000,0.000,0.000
1763445353.757,0.000,-10.254,0.000,0.000,0.000
1763445353.761,0.000,-9.277,0.000,0.000,0.000
1763445353.765,0.000,-13.672,0.000,0.000,0.000
1763445353.769,0.000,-14.160,0.000,0.000,0.000
1763445353.773,0.000,-14.648,0.000,0.000,0.000
1763445353.777,0.000,-11.230,0.000,0.000,0.000
1763445353.781,0.000,-3.906,0.000,0.000,0.000
1763445353.785,0.000,-1.465,0.000,0.000,0.000
1763445353.788,0.000,-4.395,0.000,0.000,0.000
1763445353.792,0.000,-5.859,0.000,0.000,0.000
1763445353.796,0.000,-9.277,0.000,0.000,0.000
1763445353.800,0.000,-14.648,0.000,0.000,0.000
1763445353.804,0.000,-9.766,0.000,0.000,0.000
1763445353.808,0.000,-6.348,0.000,0.000,0.000
1763445353.812,0.000,-6.836,0.000,0.000,0.000
1763445353.816,0.000,-6.348,0.000,0.000,0.000
1763445353.820,-32.715,-7.324,-39.062,-34.180,0.000
1763445353.824,-52.734,-7.812,-33.691,-21.484,0.000
1763445353.828,-54.688,-9.766,-28.320,-7.812,0.000
1763445353.831,-28.809,-7.812,-32.715,-21.973,0.000
1763445353.835,-10.254,-5.371,-34.180,-14.160,0.000
1763445353.839,-11.719,-11.230,-30.762,-10.742,0.000
1763445353.843,-19.531,-13.672,-32.227,-27.344,0.000
1763445353.847,-32.715,-6.348,-32.227,-20.020,0.000
1763445353.851,-27.832,1.465,-29.785,-16.113,0.000
1763445353.855,-16.602,5.859,-27.832,-16.113,0.000
1763445353.859,-23.926,6.348,-30.762,-26.855,0.000
1763445353.863,-33.203,1.953,-32.715,-19.531,0.000
1763445353.867,-36.621,-1.465,-30.273,-17.578,0.000
1763445353.870,-32.715,-3.418,-34.668,-34.668,0.000
1763445353.874,-23.926,-7.812,-38.086,-20.508,0.000
1763445353.878,-25.391,-11.230,-37.598,-13.672,0.000
1763445353.882,-36.621,-9.277,-43.945,-34.180,0.000
1763445353.886,-41.504,-15.625,-51.270,-27.832,0.000
1763445353.890,-29.785,-19.043,-38.574,-1.953,0.000
1763445353.894,-42.969,-11.230,-27.344,-10.254,0.000
1763445353.898,-50.781,-10.254,-31.738,-25.391,0.000
1763445353.902,-36.621,-14.160,-35.645,-25.879,0.000
1763445353.906,-36.133,-16.113,-34.668,-35.156,0.000
1763445353.909,-34.668,-16.113,-30.273,-19.043,0.000
1763445353.913,-20.508,-15.625,-31.738,-8.789,0.000
1763445353.917,-17.578,-9.766,-35.156,-12.695,0.000
1763445353.921,-20.508,-9.766,-33.203,-0.488,0.000
1763445353.925,-23.926,-10.742,-32.227,-3.906,0.000
1763445353.929,-33.691,-8.301,-40.527,-18.066,0.000
1763445353.933,-43.457,-9.766,-43.945,-18.555,0.000
1763445353.937,-53.223,-17.090,-49.805,-19.531,0.000
1763445353.941,-39.551,-19.531,-49.316,-11.230,0.000
1763445353.945,-28.809,-14.160,-42.969,-10.742,0.000
1763445353.949,-50.781,-19.043,-47.852,-15.137,0.000
1763445353.952,-71.777,-23.438,-47.852,-19.043,0.000
1763445353.956,-58.105,-16.602,-47.852,-21.973,0.000
1763445353.960,0.000,-11.719,-50.293,-18.066,0.000
1763445353.964,0.000,-7.812,-49.316,-11.719,0.000
1763445353.968,0.000,-6.836,-47.363,-14.160,0.000
1763445353.972,0.000,-8.789,-47.852,-13.184,0.000
1763445353.976,0.000,-5.859,-47.363,-13.672,0.000
1763445353.980,0.000,-8.789,-41.016,-10.254,0.000
1763445353.984,0.000,-7.812,-42.480,-3.906,0.000
1763445353.988,0.000,-7.812,-46.875,-19.043,0.000
1763445353.992,0.000,-10.742,-45.410,-8.789,0.000
1763445353.995,0.000,-12.695,-43.945,-19.531,0.000
1763445353.999,0.000,-14.648,-37.598,-26.855,0.000
1763445354.003,0.000,-9.766,-38.574,-2.441,0.000
1763445354.007,-27.832,-10.254,-53.711,-18.555,0.000
1763445354.011,-16.113,-16.113,-53.223,-19.531,0.000
1763445354.015,-5.371,-15.625,-47.363,-34.180,0.000
1763445354.019,-13.672,-11.230,-40.039,-17.578,0.000
1763445354.023,-48.340,-11.719,-40.039,-4.883,0.000
1763445354.027,-36.133,-14.160,-42.969,-14.648,0.000
1763445354.031,-3.418,-15.137,-38.086,-12.695,0.000
1763445354.034,-5.859,-12.695,-42.969,-24.902,0.000
1763445354.038,-13.184,-14.160,-45.410,-20.020,0.000
1763445354.042,-25.391,-7.812,-46.875,-13.184,0.000
1763445354.046,-52.246,-3.906,-42.480,2.930,0.000
1763445354.050,-47.363,-5.859,-40.039,-9.766,0.000
1763445354.054,-9.277,-7.324,-42.969,-17.578,0.000
1763445354.058,8.789,-6.836,-45.898,6.836,0.000
1763445354.062,-10.254,-11.230,-46.387,13.184,0.000
1763445354.066,-30.762,-13.184,-42.969,-1.953,0.000
1763445354.070,-5.859,-9.766,-37.109,-17.090,0.000
1763445354.073,-8.789,-8.301,-38.574,-15.625,0.000
1763445354.077,-14.160,0.000,-42.480,-17.090,0.000
1763445354.081,-8.301,-9.277,-37.598,-19.043,0.000
1763445354.085,-32.715,-18.066,-40.039,-6.836,0.000
1763445354.089,-43.457,-16.602,-41.016,-11.230,0.000
1763445354.093,-42.480,-14.160,-31.250,-6.836,0.000
1763445354.097,-29.785,-6.836,-34.668,-6.836,0.000
1763445354.101,0.977,-5.371,-42.480,-15.625,0.000
1763445354.105,-1.953,-5.859,-47.363,-32.715,0.000
1763445354.109,-16.113,-12.207,-54.199,-29.785,0.000
1763445354.113,-14.160,-9.277,-44.434,10.742,0.000
1763445354.116,-15.137,-2.930,-41.992,4.883,0.000
1763445354.120,-26.367,-7.812,-43.945,-36.133,0.000
1763445354.124,-30.762,-4.395,-42.969,-29.297,0.000
1763445354.128,-18.066,-4.395,-45.410,-16.113,0.000
1763445354.132,-1.953,-11.719,-47.363,-14.160,0.000
1763445354.136,-4.883,-13.184,-42.969,-17.578,0.000
1763445354.140,-23.926,-18.066,-42.480,-19.531,0.000
1763445354.144,-44.922,-29.297,-40.039,9.766,0.000
1763445354.148,-52.246,-18.066,-39.551,-34.180,0.000
1763445354.152,-52.246,-12.207,-43.945,-77.148,0.000
1763445354.155,-53.223,-18.066,-40.039,-6.348,0.000
1763445354.159,-48.828,-15.625,-35.156,-27.344,0.000
1763445354.163,-36.133,-17.578,-33.691,-49.805,0.000
1763445354.167,-25.391,-2.441,-42.969,-20.508,0.000
1763445354.171,-40.527,-5.859,-48.340,-0.488,0.000
1763445354.175,-25.879,-15.625,-39.551,5.371,0.000
1763445354.179,-0.977,-12.207,-37.109,-10.254,0.000
1763445354.183,4.395,-14.648,-33.691,28.809,0.000
1763445354.187,-11.230,-14.648,-32.715,19.043,0.000
1763445354.191,-22.461,-20.020,-34.668,-15.137,0.000
1763445354.195,-15.625,-15.137,-34.180,-12.207,0.000
1763445354.198,-22.949,-15.137,-33.203,16.602,0.000
1763445354.202,-40.527,-17.578,-34.668,19.043,0.000
1763445354.206,-45.898,-11.719,-37.598,6.348,0.000
1763445354.210,-31.250,-4.395,-43.945,-2.441,0.000
1763445354.214,-21.973,-1.953,-42.969,7.324,0.000
1763445354.218,-18.555,-12.695,-49.316,23.926,0.000
1763445354.222,-9.766,-17.578,-50.293,10.254,0.000
1763445354.226,-5.371,-5.371,-39.062,-36.621,0.000
1763445354.230,-14.160,-9.277,-30.762,-4.395,0.000
1763445354.234,-9.766,-11.230,-27.832,41.016,0.000
1763445354.237,4.883,-2.930,-37.598,6.348,0.000
1763445354.241,-3.418,-4.883,-38.574,-8.301,0.000
1763445354.245,-26.367,-3.906,-29.297,11.719,0.000
1763445354.249,-37.598,-5.859,-36.133,9.277,0.000
1763445354.253,-26.855,-9.277,-41.016,9.766,0.000
1763445354.257,-14.648,-10.742,-34.668,6.836,0.000
1763445354.261,-6.348,-14.160,-38.574,-3.418,0.000
1763445354.265,4.395,-14.160,-38.574,-0.488,0.000
1763445354.269,-0.488,-11.719,-36.133,12.695,0.000
1763445354.273,-6.348,-11.719,-37.598,4.395,0.000
1763445354.277,-7.324,-13.672,-35.645,-14.648,0.000
1763445354.280,-18.555,-11.230,-36.133,-17.578,0.000
1763445354.284,-19.531,-2.441,-40.039,-10.742,0.000
1763445354.288,0.000,-4.883,-37.598,-6.348,0.000
1763445354.292,0.000,-13.672,-40.039,-3.906,0.000
1763445354.296,0.000,-14.160,-40.527,-8.789,0.000
1763445354.300,0.000,-11.230,-40.039,-20.508,0.000
1763445354.304,0.000,-17.090,-39.551,-9.766,0.000
1763445354.308,0.000,-21.973,-40.039,-11.719,0.000
1763445354.312,0.000,-19.043,-37.598,-32.715,0.000
1763445354.316,0.000,-14.160,-32.715,-17.578,0.000
1763445354.320,0.000,-13.672,-38.574,-10.254,0.000
1763445354.323,0.000,-11.230,-36.133,-15.137,0.000
1763445354.327,0.000,-12.207,-35.645,-15.137,0.000
1763445354.331,0.000,-16.602,-40.039,-22.461,0.000
1763445354.335,-31.250,-17.090,-37.109,-14.160,0.000
1763445354.339,-37.109,-15.625,-36.621,-6.348,0.000
1763445354.343,-40.527,-6.348,-39.551,-31.250,0.000
1763445354.347,-16.602,-6.348,-33.691,-39.551,0.000
1763445354.351,-15.625,-12.695,-30.273,-21.484,0.000
1763445354.355,-18.066,-9.277,-46.387,-22.461,0.000
1763445354.359,0.488,-2.930,-50.293,-20.508,0.000
1763445354.363,7.812,-1.953,-34.180,-27.832,0.000
1763445354.366,-5.859,-11.230,-29.297,-30.762,0.000
1763445354.370,-22.461,-16.113,-27.344,-27.832,0.000
1763445354.374,-37.598,-13.672,-21.973,-2.441,0.000
1763445354.378,-35.645,-11.230,-25.391,5.859,0.000
1763445354.382,-16.602,-5.859,-31.250,-23.438,0.000
1763445354.386,-13.184,-10.742,-31.738,-22.949,0.000
1763445354.390,-14.648,-15.137,-31.250,-14.160,0.000
1763445354.394,-20.508,-13.184,-34.180,-35.645,0.000
1763445354.398,-29.785,-9.277,-35.645,-22.461,0.000
1763445354.402,-40.039,-6.836,-28.320,5.371,0.000
1763445354.405,-42.480,-6.348,-24.902,-38.086,0.000
1763445354.409,-33.203,-4.395,-26.367,-30.762,0.000
1763445354.413,-31.250,-4.395,-24.414,6.348,0.000
1763445354.417,-20.020,-12.695,-24.902,-3.906,0.000
1763445354.421,-5.859,-5.859,-29.297,0.000,0.000
1763445354.425,-3.418,-1.465,-33.203,-19.531,0.000
1763445354.429,-13.672,-9.277,-29.297,-9.766,0.000
1763445354.433,-11.719,-7.324,-30.273,-6.348,0.000
1763445354.437,-7.324,-13.184,-33.203,-17.090,0.000
1763445354.441,-16.113,-14.160,-27.344,-14.160,0.000
1763445354.445,-20.020,-12.207,-24.902,-29.297,0.000
1763445354.448,-27.344,-18.066,-26.367,-12.207,0.000
1763445354.452,-28.320,-14.648,-28.320,10.742,0.000
1763445354.456,-32.715,-9.766,-33.203,-0.977,0.000
1763445354.460,-23.926,-9.277,-35.156,-12.695,0.000
1763445354.464,-15.137,-1.953,-34.180,-19.531,0.000
1763445354.468,-38.574,-3.418,-31.738,-20.020,0.000
1763445354.472,-41.504,-15.137,-29.785,-10.254,0.000
1763445354.476,0.000,-14.648,-28.320,-7.812,0.000
1763445354.480,0.000,-9.766,-26.367,-30.273,0.000
1763445354.484,0.000,-6.348,-25.391,-20.996,0.000
1763445354.488,0.000,-5.859,-29.297,1.465,0.000
1763445354.491,0.000,-11.230,-33.203,-4.883,0.000
1763445354.495,0.000,-9.277,-28.809,-7.812,0.000
1763445354.499,0.000,-5.371,-25.879,-18.066,0.000
1763445354.503,0.000,-8.789,-25.391,-9.766,0.000
1763445354.507,0.000,-11.230,-27.832,-5.371,0.000
1763445354.511,0.000,-8.789,-25.391,-7.812,0.000
1763445354.515,0.000,-3.906,-27.344,9.277,0.000
1763445354.519,0.000,-0.488,-39.551,-4.883,0.000
1763445354.523,-14.648,-2.441,-30.273,-19.531,0.000
1763445354.527,-16.602,-2.441,-15.137,-3.906,0.000
1763445354.530,-19.043,-7.812,-16.113,15.625,0.000
1763445354.534,-34.180,-12.695,-21.484,-3.906,0.000
1763445354.538,-11.719,-6.836,-28.320,-21.973,0.000
1763445354.542,8.789,-6.836,-28.320,-9.766,0.000
1763445354.546,16.602,-11.719,-26.855,5.859,0.000
1763445354.550,1.465,-17.090,-23.926,16.113,0.000
1763445354.554,-17.090,-16.602,-24.414,8.301,0.000
1763445354.558,-8.301,-12.695,-28.809,-10.254,0.000
1763445354.562,-11.230,-17.578,-23.438,12.695,0.000
1763445354.566,-25.879,-14.160,-21.484,9.277,0.000
1763445354.570,-22.461,-9.766,-22.949,-15.625,0.000
1763445354.573,-23.438,-13.184,-22.949,-1.953,0.000
1763445354.577,-60.059,-15.137,-28.809,-17.578,0.000
1763445354.581,-50.293,-12.207,-25.879,0.000,0.000
1763445354.585,-0.977,-10.254,-19.043,25.879,0.000
1763445354.589,16.113,-17.578,-22.949,13.184,0.000
1763445354.593,-2.441,-22.949,-29.785,-16.113,0.000
1763445354.597,-20.020,-22.949,-32.227,-15.137,0.000
1763445354.601,-13.184,-23.438,-33.691,4.395,0.000
1763445354.605,-23.926,-18.555,-35.645,1.465,0.000
1763445354.609,-36.621,-11.719,-36.133,-10.254,0.000
1763445354.612,-59.570,-15.625,-35.156,-34.180,0.000
1763445354.616,-72.266,-19.531,-34.180,-22.461,0.000
1763445354.620,-41.992,-15.137,-26.367,17.578,0.000
1763445354.624,-15.137,-11.719,-21.973,18.555,0.000
1763445354.628,1.465,-8.789,-30.273,-17.578,0.000
1763445354.632,-16.602,-12.695,-30.273,-11.719,0.000
1763445354.636,-35.645,-22.461,-24.414,1.465,0.000
1763445354.640,-31.250,-22.949,-27.344,-17.090,0.000
1763445354.644,-26.367,-20.996,-30.273,-6.348,0.000
1763445354.648,-31.738,-20.020,-28.320,2.930,0.000
1763445354.652,-49.316,-22.949,-29.785,-11.719,0.000
1763445354.655,-69.824,-24.902,-30.273,-8.301,0.000
1763445354.659,-80.566,-19.531,-30.273,-4.883,0.000
1763445354.663,-67.383,-21.973,-27.344,-4.395,0.000
1763445354.667,-41.992,-17.578,-27.832,-19.043,0.000
1763445354.671,-25.879,-16.113,-27.344,-5.371,0.000
1763445354.675,-11.230,-19.531,-22.461,-2.441,0.000
1763445354.679,-19.531,-13.184,-24.414,-13.184,0.000
1763445354.683,-13.672,-0.977,-22.461,6.348,0.000
1763445354.687,6.348,-8.301,-15.137,14.160,0.000
1763445354.691,3.418,-12.207,-9.766,13.184,0.000
1763445354.694,-12.207,-5.859,-17.578,14.648,0.000
1763445354.698,-30.762,-13.672,-17.090,18.066,0.000
1763445354.702,-36.621,-16.113,-10.742,13.184,0.000
1763445354.706,-45.898,-6.836,-14.160,-5.371,0.000
1763445354.710,-41.016,-6.348,-15.137,-4.883,0.000
1763445354.714,-33.203,-14.648,-19.531,12.695,0.000
1763445354.718,-38.086,-9.277,-18.555,12.695,0.000
1763445354.722,-34.668,-6.348,-20.508,-20.996,0.000
1763445354.726,-24.414,-13.184,-32.227,-16.602,0.000
1763445354.730,-11.719,-14.648,-34.180,10.254,0.000
1763445354.734,-15.137,-18.066,-25.879,7.324,0.000
1763445354.737,-21.484,-16.602,-23.438,3.418,0.000
1763445354.741,-34.180,-15.625,-24.414,-0.977,0.000
1763445354.745,-41.992,-16.602,-26.367,6.348,0.000
1763445354.749,-25.391,-13.672,-24.414,15.137,0.000
1763445354.753,-26.367,-11.719,-20.508,0.977,0.000
1763445354.757,-35.645,-9.766,-17.578,5.371,0.000
1763445354.761,-20.020,-10.742,-17.578,-0.977,0.000
1763445354.765,7.324,-15.137,-21.484,-17.578,0.000
1763445354.769,24.414,-10.254,-29.297,-30.762,0.000
1763445354.773,13.184,-12.207,-31.738,-20.996,0.000
1763445354.776,-0.977,-15.625,-29.785,-0.488,0.000
1763445354.780,-0.977,-10.254,-32.715,-11.230,0.000
1763445354.784,-20.020,-14.648,-32.715,-1.953,0.000
1763445354.788,-39.062,-13.184,-30.762,4.395,0.000
1763445354.792,-31.738,-11.719,-28.809,6.348,0.000
1763445354.796,-13.672,-13.184,-26.367,2.930,0.000
1763445354.800,-1.465,-7.812,-28.809,-11.719,0.000
1763445354.804,-5.371,-6.348,-31.738,-29.297,0.000
1763445354.808,-6.348,-5.859,-31.250,-15.137,0.000
1763445354.812,2.930,-4.395,-30.762,-2.441,0.000
1763445354.816,-9.766,-6.836,-32.227,-16.602,0.000
1763445354.819,-12.695,-9.766,-35.156,-20.020,0.000
1763445354.823,-0.977,-8.789,-32.715,-8.789,0.000
1763445354.827,5.859,-6.348,-34.180,-15.137,0.000
1763445354.831,6.348,-9.766,-36.133,-21.973,0.000
1763445354.835,-15.625,-11.719,-30.762,-9.766,0.000
1763445354.839,-31.250,-6.348,-32.227,-11.719,0.000
1763445354.843,-19.531,-5.859,-28.320,-11.230,0.000
1763445354.847,-3.906,-7.324,-25.879,-5.371,0.000
1763445354.851,3.906,-7.812,-27.344,-3.906,0.000
1763445354.855,-3.906,-9.277,-30.762,-3.418,0.000
1763445354.859,-12.695,-10.254,-36.621,-14.648,0.000
1763445354.862,-21.484,-6.836,-37.598,-23.438,0.000
1763445354.866,-32.715,-7.812,-35.156,-20.508,0.000
1763445354.870,-24.902,-9.277,-33.691,-16.602,0.000
1763445354.874,-27.344,-16.602,-32.715,-13.184,0.000
1763445354.878,-39.551,-21.484,-34.180,-21.973,0.000
1763445354.882,-18.066,-10.742,-34.668,-8.789,0.000
1763445354.886,-11.230,-4.395,-31.250,-2.441,0.000
1763445354.890,-20.020,-4.395,-24.902,-24.902,0.000
1763445354.894,-29.297,-5.371,-21.973,-17.090,0.000
1763445354.898,-35.645,-2.930,-20.508,0.488,0.000
1763445354.901,-22.949,-2.930,-19.043,2.930,0.000
1763445354.905,-20.020,-9.766,-21.484,-8.301,0.000
1763445354.909,-7.324,-14.160,-20.508,-13.672,0.000
1763445354.913,-7.324,-14.160,-22.461,-9.277,0.000
1763445354.917,-1.465,-9.766,-22.461,-2.930,0.000
1763445354.921,4.883,-15.137,-23.926,3.418,0.000
1763445354.925,-14.648,-16.602,-23.926,-3.418,0.000
1763445354.929,-32.227,-13.184,-22.461,-18.066,0.000
1763445354.933,-28.320,-16.113,-29.297,-19.043,0.000
1763445354.937,-11.719,-14.160,-30.273,-11.230,0.000
1763445354.941,-1.465,-13.184,-24.414,-16.113,0.000
1763445354.944,0.000,-15.625,-19.531,-10.742,0.000
1763445354.948,2.930,-10.742,-17.090,-5.859,0.000
1763445354.952,4.883,-3.906,-20.020,-9.766,0.000
1763445354.956,10.254,-6.348,-20.996,-18.555,0.000
1763445354.960,17.090,-11.719,-20.996,-10.742,0.000
1763445354.964,7.812,-13.672,-20.020,7.812,0.000
1763445354.968,-1.953,-15.625,-16.113,14.160,0.000
1763445354.972,-5.859,-19.043,-14.160,14.160,0.000
1763445354.976,-17.090,-16.602,-11.230,15.137,0.000
1763445354.980,-21.484,-13.672,-11.230,-5.859,0.000
1763445354.983,-21.484,-11.719,-13.184,-10.742,0.000
1763445354.987,-32.227,-9.277,-13.672,10.254,0.000
1763445354.991,-36.133,-9.766,-20.020,7.324,0.000
1763445354.995,-9.766,-12.207,-18.555,0.488,0.000
1763445354.999,-4.395,-17.090,-19.043,-0.488,0.000
1763445355.003,-14.160,-21.973,-20.996,2.441,0.000
1763445355.007,-9.766,-19.043,-19.531,-4.883,0.000
1763445355.011,-13.184,-18.555,-23.926,-20.996,0.000
1763445355.015,-8.789,-13.184,-32.715,-29.297,0.000
1763445355.019,-7.324,-16.113,-33.203,-17.090,0.000
1763445355.023,-10.254,-21.484,-26.367,-12.695,0.000
1763445355.026,-18.066,-17.578,-24.902,-8.301,0.000
1763445355.030,-25.391,-13.184,-31.250,-20.996,0.000
1763445355.034,-21.484,-10.254,-24.902,-19.043,0.000
1763445355.038,-11.719,-11.719,-20.508,-8.789,0.000
1763445355.042,6.348,-5.859,-22.949,2.441,0.000
1763445355.046,22.949,-6.348,-24.414,4.883,0.000
1763445355.050,26.855,-10.742,-30.273,-8.301,0.000
1763445355.054,8.301,-16.113,-37.598,0.977,0.000
1763445355.058,-5.371,-17.090,-38.574,-13.184,0.000
1763445355.062,-6.836,-15.625,-35.156,-13.672,0.000
1763445355.066,0.488,-13.184,-34.668,-9.766,0.000
1763445355.069,13.672,-9.277,-29.297,-7.812,0.000
1763445355.073,2.930,-10.254,-28.320,-1.953,0.000
1763445355.077,-22.949,-12.695,-28.320,-1.953,0.000
1763445355.081,-26.855,-12.207,-21.973,-2.441,0.000
1763445355.085,-1.465,-9.766,-20.508,-1.953,0.000
1763445355.089,14.160,-8.789,-24.902,-12.695,0.000
1763445355.093,7.324,-8.789,-27.344,-15.625,0.000
1763445355.097,11.230,-8.301,-26.367,-5.859,0.000
1763445355.101,10.742,-12.695,-23.926,-9.766,0.000
1763445355.105,-0.488,-13.672,-26.367,-6.348,0.000
1763445355.109,5.371,-7.812,-32.715,-28.320,0.000
1763445355.112,4.395,-10.742,-29.297,-23.438,0.000
1763445355.116,-13.184,-14.160,-28.809,-7.324,0.000
1763445355.120,-22.949,-12.695,-26.855,-16.602,0.000
1763445355.124,-16.113,-10.254,-14.648,10.254,0.000
1763445355.128,-10.742,-18.066,-16.113,3.906,0.000
1763445355.132,5.371,-18.066,-24.414,-11.230,0.000
1763445355.136,23.438,-12.207,-19.043,27.344,0.000
1763445355.140,10.742,-13.672,-12.695,13.184,0.000
1763445355.144,-1.465,-4.395,-15.137,16.113,0.000
1763445355.148,-7.812,-6.348,-21.973,13.184,0.000
1763445355.151,-14.160,-13.672,-20.996,-13.672,0.000
1763445355.155,-6.348,-11.719,-13.184,28.809,0.000
1763445355.159,-14.160,-17.090,-15.625,6.348,0.000
1763445355.163,-35.645,-25.879,-22.461,-34.668,0.000
1763445355.167,-25.879,-24.902,-15.625,14.648,0.000
1763445355.171,-13.184,-17.578,-8.789,45.898,0.000
1763445355.175,-8.301,-12.207,-16.113,22.461,0.000
1763445355.179,-6.836,-14.648,-24.414,5.371,0.000
1763445355.183,-3.418,-14.648,-18.066,-4.395,0.000
1763445355.187,-14.160,-15.625,-15.137,-12.695,0.000
1763445355.191,-21.973,-19.531,-16.113,27.344,0.000
1763445355.194,-7.324,-9.766,-9.766,32.227,0.000
1763445355.198,-6.836,-10.254,-10.742,8.789,0.000
1763445355.202,-10.254,-14.648,-20.508,-4.883,0.000
1763445355.206,-3.906,-20.508,-19.531,8.789,0.000
1763445355.210,-3.906,-22.949,-8.301,32.227,0.000
1763445355.214,-12.695,-14.160,-9.277,14.160,0.000
1763445355.218,-16.113,-10.254,-13.184,8.301,0.000
1763445355.222,-25.391,-7.324,-17.090,-14.648,0.000
1763445355.226,0.000,-6.348,-13.672,4.395,0.000
1763445355.230,0.000,-10.742,0.977,28.809,0.000
1763445355.233,0.000,-10.742,-3.418,20.996,0.000
1763445355.237,0.000,-11.719,-11.230,3.418,0.000
1763445355.241,0.000,-14.648,-8.301,1.465,0.000
1763445355.245,0.000,-10.742,-9.277,12.695,0.000
1763445355.249,0.000,-13.672,-9.766,0.488,0.000
1763445355.253,0.000,-19.531,-8.789,7.324,0.000
1763445355.257,0.000,-20.508,-16.113,-2.441,0.000
1763445355.261,0.000,-18.066,-15.137,-5.859,0.000
1763445355.265,0.000,-21.484,-13.672,12.695,0.000
1763445355.269,0.000,-20.020,-22.949,0.977,0.000
1763445355.273,-23.438,-14.160,-25.391,-11.230,0.000
1763445355.276,-7.324,-14.648,-20.996,5.859,0.000
1763445355.280,-0.488,-10.742,-20.508,10.254,0.000
1763445355.284,3.418,-6.348,-19.043,6.348,0.000
1763445355.288,-1.465,-1.953,-19.531,-0.488,0.000
1763445355.292,-14.160,-2.441,-9.766,0.977,0.000
1763445355.296,-15.137,-6.348,-10.742,-2.441,0.000
1763445355.300,-0.977,-5.859,-25.879,-23.438,0.000
1763445355.304,12.695,-2.441,-25.879,-9.277,0.000
1763445355.308,8.789,-2.930,-24.902,-5.371,0.000
1763445355.312,-5.859,-10.742,-22.461,-17.578,0.000
1763445355.315,-24.902,-12.207,-17.578,-12.695,0.000
1763445355.319,-20.020,-8.301,-11.230,-5.859,0.000
1763445355.323,-2.930,-7.324,-11.230,-14.648,0.000
1763445355.327,3.418,-4.395,-14.648,-7.324,0.000
1763445355.331,-16.602,-7.324,-20.020,-19.043,0.000
1763445355.335,-41.504,-13.184,-26.367,-28.809,0.000
1763445355.339,-32.227,-16.113,-25.879,-24.414,0.000
1763445355.343,-20.020,-21.973,-23.926,-25.391,0.000
1763445355.347,-29.297,-19.531,-26.855,-24.902,0.000
1763445355.351,-23.438,-16.113,-29.785,-25.391,0.000
1763445355.355,-4.883,-16.113,-28.320,-25.391,0.000
1763445355.358,-3.906,-16.113,-24.902,-19.043,0.000
1763445355.362,-16.113,-14.648,-20.996,-16.602,0.000
1763445355.366,-26.855,-12.207,-20.996,-19.043,0.000
1763445355.370,-21.973,-6.348,-20.020,-16.113,0.000
1763445355.374,-11.719,-3.418,-19.531,-20.020,0.000
1763445355.378,-13.184,-13.184,-24.902,-32.715,0.000
1763445355.382,-22.461,-20.020,-27.832,-32.227,0.000
1763445355.386,-19.043,-20.508,-27.344,-20.508,0.000
1763445355.390,-8.789,-19.531,-30.762,-26.367,0.000
1763445355.394,-12.207,-18.555,-26.367,-18.066,0.000
1763445355.397,-21.484,-20.508,-18.555,-16.602,0.000
1763445355.401,-21.973,-20.508,-17.578,-14.160,0.000
1763445355.405,-17.578,-15.137,-15.137,-2.930,0.000
1763445355.409,-25.879,-13.672,-16.602,-11.230,0.000
1763445355.413,-30.273,-18.555,-20.020,-20.508,0.000
1763445355.417,-14.160,-20.996,-21.973,-17.578,0.000
1763445355.421,-22.949,-21.484,-24.414,-19.531,0.000
1763445355.425,-37.598,-13.672,-27.344,-32.227,0.000
1763445355.429,-23.926,-15.137,-25.879,-32.715,0.000
1763445355.433,-16.113,-18.555,-29.297,-40.527,0.000
1763445355.437,-14.648,-18.066,-21.484,-22.461,0.000
1763445355.440,-25.879,-17.090,-9.277,-16.113,0.000
1763445355.444,-39.062,-10.742,-16.113,-13.184,0.000
1763445355.448,-27.344,-4.395,-18.555,3.906,0.000
1763445355.452,-23.926,-9.277,-16.602,-12.207,0.000
1763445355.456,-26.855,-15.625,-14.160,-18.066,0.000
1763445355.460,-10.254,-12.695,-11.719,-7.324,0.000
1763445355.464,3.906,-7.812,-14.648,-2.441,0.000
1763445355.468,10.254,-8.789,-13.672,-5.371,0.000
1763445355.472,6.348,-13.184,-16.113,-14.160,0.000
1763445355.476,3.418,-10.254,-18.555,-30.762,0.000
1763445355.480,-4.395,-8.789,-15.625,-24.902,0.000
1763445355.483,-29.785,-13.184,-18.555,-5.371,0.000
1763445355.487,-36.621,-9.277,-22.461,-12.695,0.000
1763445355.491,-29.297,-14.648,-22.949,-18.555,0.000
1763445355.495,-23.438,-20.020,-22.949,-18.066,0.000
1763445355.499,-4.883,-11.719,-19.043,-20.996,0.000
1763445355.503,3.906,-12.207,-15.625,-29.297,0.000
1763445355.507,2.930,-10.254,-17.090,-7.812,0.000
1763445355.511,-9.277,-7.812,-20.020,-8.789,0.000
1763445355.515,-29.785,-13.184,-21.484,-20.508,0.000
1763445355.519,-28.809,-14.648,-18.066,-1.465,0.000
1763445355.522,-23.926,-18.066,-20.508,-8.301,0.000
1763445355.526,-9.277,-20.020,-22.461,0.000,0.000
1763445355.530,9.766,-16.602,-20.996,6.836,0.000
1763445355.534,11.230,-16.602,-21.973,-0.488,0.000
1763445355.538,15.137,-15.137,-20.508,-11.230,0.000
1763445355.542,12.207,-17.578,-13.672,-2.930,0.000
1763445355.546,-4.883,-18.066,-8.789,14.160,0.000
1763445355.550,-15.625,-20.020,-8.301,1.465,0.000
1763445355.554,-17.090,-20.508,-7.812,-2.441,0.000
1763445355.558,-21.973,-20.020,-6.348,6.348,0.000
1763445355.562,-15.625,-19.043,-8.789,-1.465,0.000
1763445355.565,-11.230,-14.648,-11.230,0.000,0.000
1763445355.569,-21.973,-12.207,-15.137,-1.953,0.000
1763445355.573,-7.812,-11.230,-19.531,-24.902,0.000
1763445355.577,6.348,-12.695,-8.301,-5.371,0.000
1763445355.581,-3.906,-19.043,-0.977,14.648,0.000
1763445355.585,4.395,-15.625,-2.441,-4.395,0.000
1763445355.589,15.137,-6.348,-5.371,-10.254,0.000
1763445355.593,-5.371,-11.719,-8.789,2.930,0.000
1763445355.597,-17.578,-18.555,-7.812,9.277,0.000
1763445355.601,-2.441,-13.184,-6.348,0.000,0.000
1763445355.604,1.953,-10.254,-5.859,-2.930,0.000
1763445355.608,0.977,-6.836,-4.395,6.348,0.000
1763445355.612,-8.301,-3.418,-5.859,3.906,0.000
1763445355.616,-14.160,-13.672,-2.930,-5.859,0.000
1763445355.620,-24.414,-17.090,3.418,10.742,0.000
1763445355.624,-41.504,-16.602,3.418,15.625,0.000
1763445355.628,-30.273,-19.043,-5.371,-17.578,0.000
1763445355.632,-2.930,-13.184,-8.301,-2.930,0.000
1763445355.636,-1.465,-19.531,-3.906,-4.395,0.000
1763445355.640,-11.230,-15.625,-3.418,-19.531,0.000
1763445355.644,-0.488,-5.859,0.488,-2.441,0.000
1763445355.647,0.488,-7.324,-5.371,-5.371,0.000
1763445355.651,-11.230,-12.207,-20.020,-10.742,0.000
1763445355.655,-36.133,-20.508,-14.160,-1.953,0.000
1763445355.659,-36.133,-19.531,-8.789,-13.672,0.000
1763445355.663,-27.832,-17.578,-6.836,-21.973,0.000
1763445355.667,-21.484,-19.531,-7.812,7.324,0.000
1763445355.671,-18.555,-26.855,-14.160,-6.836,0.000
1763445355.675,-29.297,-30.273,-12.695,-0.977,0.000
1763445355.679,-21.484,-14.648,-14.160,-27.344,0.000
1763445355.683,-2.930,-16.113,-16.602,-18.555,0.000
1763445355.686,-6.836,-25.391,-17.578,14.160,0.000
1763445355.690,-16.113,-18.555,-15.137,-14.160,0.000
1763445355.694,-13.184,-17.090,-7.324,-14.160,0.000
1763445355.698,-17.578,-20.020,-11.230,-15.137,0.000
1763445355.702,-28.809,-19.531,-19.043,-24.414,0.000
1763445355.706,-19.043,-27.832,-10.742,-8.301,0.000
1763445355.710,-25.879,-25.391,-3.418,2.930,0.000
1763445355.714,-29.297,-19.531,-4.883,-0.977,0.000
1763445355.718,-18.066,-28.320,-7.324,-4.883,0.000
1763445355.722,-0.977,-27.344,-15.137,-10.742,0.000
1763445355.726,1.953,-17.090,-20.996,-19.043,0.000
1763445355.729,-8.789,-11.719,-19.531,-12.207,0.000
1763445355.733,-6.348,-12.695,-15.137,-6.348,0.000
1763445355.737,-20.996,-17.090,-17.090,-9.277,0.000
1763445355.741,-9.277,-14.648,-12.695,13.672,0.000
1763445355.745,-15.137,-12.695,-13.184,13.184,0.000
1763445355.749,-20.996,-15.625,-18.555,2.441,0.000
1763445355.753,1.465,-13.672,-15.137,7.812,0.000
1763445355.757,8.789,-8.301,-17.578,-1.953,0.000
1763445355.761,-6.836,-19.043,-12.207,0.977,0.000
1763445355.765,-22.461,-21.973,-18.066,-18.066,0.000
1763445355.768,-4.395,-14.648,-17.090,-0.488,0.000
1763445355.772,8.301,-9.277,-9.766,11.230,0.000
1763445355.776,4.883,-8.789,-15.137,0.488,0.000
1763445355.780,0.977,-12.207,-15.137,2.930,0.000
1763445355.784,4.395,-14.160,-13.184,-0.977,0.000
1763445355.788,10.254,-13.184,-10.742,2.441,0.000
1763445355.792,15.625,-15.137,-9.277,3.418,0.000
1763445355.796,5.371,-14.160,-15.137,-6.348,0.000
1763445355.800,-12.695,-11.719,-20.996,-13.184,0.000
1763445355.804,-16.602,-12.207,-20.508,-7.812,0.000
1763445355.808,-3.906,-14.160,-20.508,-10.254,0.000
1763445355.811,10.742,-14.160,-18.555,4.395,0.000
1763445355.815,11.719,-11.719,-18.066,2.441,0.000
1763445355.819,-4.883,-15.625,-18.066,-2.441,0.000
1763445355.823,-6.836,-17.578,-20.508,-5.371,0.000
1763445355.827,-9.277,-18.066,-23.438,-15.137,0.000
1763445355.831,-8.301,-19.043,-17.090,-2.930,0.000
1763445355.835,3.418,-19.531,-15.137,3.906,0.000
1763445355.839,-2.930,-17.578,-19.043,0.488,0.000
1763445355.843,-21.484,-10.254,-18.555,-13.184,0.000
1763445355.847,-13.672,-5.859,-17.090,-16.602,0.000
1763445355.850,18.555,0.000,-22.461,-10.254,0.000
1763445355.854,3.418,-4.395,-21.484,-11.230,0.000
1763445355.858,-13.184,-10.254,-21.973,-17.090,0.000
1763445355.862,-2.441,-2.930,-23.438,-11.230,0.000
1763445355.866,-9.277,-7.812,-20.508,-12.207,0.000
1763445355.870,-27.344,-11.719,-16.602,-15.137,0.000
1763445355.874,-16.113,-8.301,-10.254,-12.207,0.000
1763445355.878,-11.230,-14.160,-13.672,-17.090,0.000
1763445355.882,-13.184,-13.672,-13.672,-8.301,0.000
1763445355.886,10.254,-9.766,-11.230,-8.789,0.000
1763445355.890,14.648,-11.230,-13.672,-34.668,0.000
1763445355.893,2.930,-14.160,-15.625,-17.090,0.000
1763445355.897,-19.531,-17.090,-16.602,-8.301,0.000
1763445355.901,-41.504,-16.602,-18.066,-18.555,0.000
1763445355.905,-38.574,-13.672,-18.066,-21.973,0.000
1763445355.909,-36.621,-14.160,-20.508,-20.996,0.000
1763445355.913,-28.809,-19.531,-22.949,-26.855,0.000
1763445355.917,-25.879,-23.438,-17.578,-19.531,0.000
1763445355.921,-20.508,-19.531,-16.602,-13.672,0.000
1763445355.925,-6.836,-19.531,-20.508,-26.367,0.000
1763445355.929,-5.371,-17.090,-20.020,-21.973,0.000
1763445355.933,-1.953,-15.625,-16.113,-29.297,0.000
1763445355.936,-6.836,-18.555,-16.113,-15.137,0.000
1763445355.940,-19.531,-18.555,-21.484,-12.207,0.000
1763445355.944,-10.254,-15.625,-17.578,-21.484,0.000
1763445355.948,-9.277,-13.184,-10.254,-15.137,0.000
1763445355.952,-8.301,-11.719,-8.301,-4.883,0.000
1763445355.956,-21.973,-11.719,-11.230,-12.207,0.000
1763445355.960,-35.156,-13.672,-16.113,-19.531,0.000
1763445355.964,-17.090,-14.648,-20.996,-21.973,0.000
1763445355.968,-21.484,-16.602,-17.578,-22.461,0.000
1763445355.972,-22.461,-14.648,-19.043,-15.625,0.000
1763445355.975,0.000,-20.020,-25.391,-20.020,0.000
1763445355.979,0.000,-23.926,-23.438,-30.273,0.000
1763445355.983,0.000,-18.555,-18.555,-31.250,0.000
1763445355.987,0.000,-19.531,-11.230,-16.602,0.000
1763445355.991,0.000,-16.113,-8.301,-5.859,0.000
1763445355.995,0.000,-10.742,-6.348,-13.672,0.000
1763445355.999,0.000,-15.625,-10.254,-25.879,0.000
1763445356.003,0.000,-18.555,-17.578,-20.020,0.000
1763445356.007,0.000,-16.602,-16.113,-10.742,0.000
1763445356.011,0.000,-18.066,-15.625,-8.301,0.000
1763445356.015,0.000,-18.066,-21.484,-16.602,0.000
1763445356.018,0.000,-15.625,-16.113,-23.926,0.000
1763445356.022,3.418,-11.719,-11.230,-26.855,0.000
1763445356.026,5.371,-14.160,-14.648,-12.207,0.000
1763445356.030,-6.836,-20.020,-15.625,-13.672,0.000
1763445356.034,-5.371,-18.066,-16.602,-20.508,0.000
1763445356.038,-7.324,-17.578,-18.066,-24.414,0.000
1763445356.042,-11.719,-17.578,-13.184,-12.695,0.000
1763445356.046,-21.484,-19.043,-16.602,-16.113,0.000
1763445356.050,-32.715,-23.438,-21.973,-23.926,0.000
1763445356.054,-19.043,-20.508,-15.625,-5.371,0.000
1763445356.057,-0.977,-19.531,-15.137,-0.488,0.000
1763445356.061,7.812,-16.113,-19.043,-12.695,0.000
1763445356.065,2.441,-15.625,-20.020,-16.113,0.000
1763445356.069,-9.766,-16.602,-18.555,-10.254,0.000
1763445356.073,-11.230,-16.602,-16.113,-15.137,0.000
1763445356.077,-12.207,-16.113,-11.230,-18.066,0.000
1763445356.081,-36.133,-21.973,-12.695,-27.344,0.000
1763445356.085,-31.738,-26.855,-15.625,-26.855,0.000
1763445356.089,-7.812,-19.043,-8.301,-22.949,0.000
1763445356.093,-9.277,-24.414,-12.695,-22.949,0.000
1763445356.097,-4.395,-21.973,-15.137,-20.508,0.000
1763445356.100,3.418,-5.371,-5.371,-9.766,0.000
1763445356.104,7.324,-12.207,-9.766,-5.371,0.000
1763445356.108,12.207,-15.625,-19.043,-22.461,0.000
1763445356.112,11.230,-12.695,-16.113,-26.367,0.000
1763445356.116,6.348,-14.160,-11.719,-21.484,0.000
1763445356.120,-3.906,-10.254,-11.230,-23.926,0.000
1763445356.124,-7.324,-11.230,-8.789,-23.438,0.000
1763445356.128,10.254,-8.789,-11.230,-13.672,0.000
1763445356.132,7.324,-6.348,-10.742,-16.602,0.000
1763445356.136,2.930,-11.719,-6.348,-23.438,0.000
1763445356.139,8.301,-13.672,-8.789,-19.043,0.000
1763445356.143,-3.906,-16.602,-6.348,-10.254,0.000
1763445356.147,-8.789,-12.207,-5.859,-15.625,0.000
1763445356.151,0.000,-9.277,-7.324,-22.461,0.000
1763445356.155,-9.277,-15.137,-7.324,-16.113,0.000
1763445356.159,-30.762,-15.625,-6.348,-10.254,0.000
1763445356.163,-25.391,-13.672,-0.977,-15.137,0.000
1763445356.167,-7.324,-12.207,-3.418,-14.648,0.000
1763445356.171,15.625,-10.742,-8.789,-12.207,0.000
1763445356.175,17.090,-9.277,-6.348,-20.996,0.000
1763445356.179,10.254,-9.277,-0.977,-9.277,0.000
1763445356.182,8.301,-7.812,-3.906,-4.395,0.000
1763445356.186,-9.277,-4.883,-5.859,-8.301,0.000
1763445356.190,-21.973,-4.395,-2.441,-6.836,0.000
1763445356.194,-15.137,-11.230,-2.441,-18.066,0.000
1763445356.198,-2.441,-15.137,-13.184,-25.879,0.000
1763445356.202,1.465,-10.254,-18.555,-31.250,0.000
1763445356.206,0.488,-12.695,-16.113,-40.527,0.000
1763445356.210,-11.230,-20.996,-19.531,-40.527,0.000
1763445356.214,-10.742,-24.902,-23.926,-31.250,0.000
1763445356.218,-2.930,-20.996,-20.996,-38.574,0.000
1763445356.221,-4.883,-16.113,-16.602,-47.363,0.000
1763445356.225,-10.254,-10.742,-22.949,-45.898,0.000
1763445356.229,-28.809,-9.277,-20.020,-38.086,0.000
1763445356.233,-29.785,-13.672,-13.184,-40.527,0.000
1763445356.237,-18.555,-11.719,-10.742,-41.992,0.000
1763445356.241,-26.855,-13.672,-10.742,-39.551,0.000
1763445356.245,-40.039,-16.113,-12.695,-41.016,0.000
1763445356.249,-23.438,-9.766,-17.578,-38.086,0.000
1763445356.253,-4.883,-12.207,-20.508,-36.621,0.000
1763445356.257,1.465,-11.719,-16.113,-48.340,0.000
1763445356.261,6.836,-12.695,-14.160,-46.387,0.000
1763445356.264,10.254,-17.090,-19.043,-27.344,0.000
1763445356.268,12.695,-14.160,-18.555,-31.738,0.000
1763445356.272,8.789,-11.719,-14.648,-36.621,0.000
1763445356.276,-2.930,-12.695,-13.672,-50.293,0.000
1763445356.280,-30.273,-13.184,-16.113,-41.992,0.000
1763445356.284,-53.223,-26.855,-17.578,-22.461,0.000
1763445356.288,-42.480,-30.273,-18.555,-26.367,0.000
1763445356.292,-36.133,-15.625,-19.043,-40.039,0.000
1763445356.296,-58.594,-16.602,-17.090,-36.133,0.000
1763445356.300,-62.988,-21.484,-16.113,-27.344,0.000
1763445356.304,-34.668,-22.461,-12.695,-31.738,0.000
